Time,FP1,AFF5,AFz,F1,FC5,FC1,T7,C3,Cz,CP5,CP1,P7,P3,Pz,POz,O1,FP2,AFF6,F2,FC2,FC6,C4,T8,CP2,CP6,P4,P8,O2,HEOG,VEOG,
-0.1,4.090039473e-06,-2.992545055e-06,3.156875372e-06,-7.341788627e-07,-2.662292595e-06,-7.710741747e-07,2.336248572e-06,-2.645282594e-06,1.589593680e-06,-2.885821764e-06,-5.760125148e-08,-2.788088406e-08,-6.625139967e-07,1.424154951e-06,1.572079963e-06,8.513353845e-07,3.242084907e-06,1.108943001e-07,2.769745936e-06,2.336307141e-06,5.567606646e-06,1.728961859e-06,2.815362190e-06,1.793010920e-06,2.364523204e-06,2.121650171e-06,2.948289073e-06,1.822182400e-06,-1.273784406e-05,-7.173122697e-06
-0.095,6.259769510e-06,-3.343143681e-06,7.440216509e-06,-7.487495852e-07,-5.162677103e-06,3.856462668e-07,6.008184082e-07,-4.122960273e-06,4.192120540e-06,-5.103603832e-06,7.275674633e-07,-9.571086173e-07,-7.901908401e-07,2.927977511e-06,3.154031335e-06,1.444192573e-06,1.151728603e-05,2.966515975e-06,5.010639632e-06,4.135850134e-06,8.647398797e-06,2.706793442e-06,4.987010023e-06,4.166196526e-06,3.973195174e-06,4.291198453e-06,6.444708511e-06,3.397691934e-06,6.364025613e-05,-2.657217062e-05
-0.09,5.137378246e-06,2.287824647e-06,8.120310027e-06,1.874428099e-06,-2.808639301e-06,3.477904201e-06,-5.720779117e-06,-9.144019384e-07,5.472086688e-06,-2.464474943e-06,2.159787131e-06,-1.455558018e-06,1.780905261e-07,2.881265929e-06,2.789002251e-06,1.912320529e-08,9.591371537e-06,4.244069345e-06,5.360991718e-06,4.534394232e-06,4.188161522e-06,2.391270324e-06,2.809121149e-06,4.859479534e-06,3.097958885e-06,4.226051922e-06,5.974593565e-06,2.688437397e-06,4.498793374e-05,-4.928547565e-06
-0.085,6.468700619e-06,5.340790268e-06,8.913330394e-06,5.274735324e-06,-4.363696514e-07,5.508383646e-06,-8.158772264e-06,2.471192257e-06,6.393925239e-06,8.843547308e-09,3.556792074e-06,-5.986183649e-07,1.030632577e-06,2.920560024e-06,2.395755244e-06,-1.330558990e-06,-8.956113792e-07,8.821891967e-07,7.526775751e-06,6.762918040e-06,1.763448664e-06,3.531885826e-06,8.482160915e-07,5.222413479e-06,2.948808861e-06,4.135201692e-06,3.956204461e-06,2.289190846e-06,-5.787120875e-05,1.810916462e-05
-0.08,6.161579178e-06,5.971900358e-06,8.408440438e-06,8.424065998e-06,1.689949810e-06,5.925567913e-06,-6.596161707e-06,5.674046385e-06,5.953949104e-06,2.317840748e-06,4.434424567e-06,7.786671505e-07,1.832981500e-06,2.155590697e-06,1.359873848e-06,-2.067427888e-06,-9.592372492e-06,-3.716948533e-06,8.473378143e-06,8.259518086e-06,3.681539159e-07,4.480709698e-06,-1.186132324e-06,4.251149255e-06,2.191095811e-06,2.807082287e-06,3.008000370e-07,1.694057976e-06,-2.943270752e-05,3.787517280e-06
-0.075,4.593861907e-06,6.311198306e-06,7.288862826e-06,1.033002723e-05,3.268893264e-06,5.173115119e-06,-2.446394087e-06,7.102114186e-06,5.147657994e-06,3.637326242e-06,4.578899267e-06,1.422403827e-06,2.371429448e-06,1.277427815e-06,5.870796081e-07,-1.917526446e-06,-6.271817757e-06,-4.137389424e-06,7.951157639e-06,8.608180389e-06,1.745141173e-06,5.007817924e-06,-1.678961169e-06,3.274976352e-06,1.962666490e-06,1.633586427e-06,-1.293474386e-06,1.746121356e-06,6.539561175e-05,-5.135716856e-06
-0.07,1.868538627e-06,9.324330180e-06,5.070198311e-06,1.087056712e-05,5.709959237e-06,5.086901435e-06,5.322178259e-07,7.636608902e-06,4.549070173e-06,5.117512459e-06,4.301275691e-06,8.960125098e-07,2.894113244e-06,6.256585327e-07,1.807138548e-07,-1.584565615e-06,5.223807498e-06,1.672653752e-06,5.882324226e-06,7.243612892e-06,2.594716612e-06,4.538001483e-06,-8.158764553e-07,2.843196820e-06,2.268047028e-06,1.219297157e-06,1.933090391e-07,1.989871724e-06,3.797642201e-05,-1.320871519e-05
-0.065,1.534969297e-08,1.116852320e-05,2.318146818e-06,9.650716976e-06,7.929008913e-06,5.765847949e-06,1.541736864e-06,7.399052529e-06,4.187150973e-06,6.069986086e-06,3.682566789e-06,1.297583680e-07,3.062013752e-06,4.217918368e-07,8.771841619e-08,-1.387353575e-06,1.169316335e-05,9.219196747e-06,3.708584727e-06,4.907260204e-06,1.304928483e-06,3.349687731e-06,1.122998457e-06,2.744670373e-06,2.900781257e-06,1.556950474e-06,3.187188299e-06,1.960455982e-06,-6.274507500e-05,2.511486658e-05
-0.06,-7.637435285e-07,5.790988141e-06,-8.249099699e-07,6.464371528e-06,7.779486060e-06,5.468245227e-06,1.246483738e-06,6.288539247e-06,2.746338134e-06,5.392178438e-06,2.386490420e-06,1.994845168e-07,2.366664329e-06,-2.001303565e-07,-5.415738069e-07,-1.386315550e-06,5.502260294e-06,1.160547786e-05,1.480644689e-06,1.648292259e-06,-2.382032596e-06,1.154085474e-06,2.174968996e-06,1.423150568e-06,2.176341393e-06,8.835284912e-07,3.706801522e-06,7.404455974e-07,-3.702379098e-05,2.970731120e-05
-0.055,-5.880307710e-07,-7.504882565e-06,-3.595377533e-06,1.685876228e-06,4.019228983e-06,2.357110007e-06,8.618517340e-07,3.757018017e-06,-5.606450387e-07,2.479448931e-06,2.033284625e-07,1.129934850e-06,6.526772962e-07,-1.771097604e-06,-1.939052724e-06,-1.406020877e-06,-5.817325313e-06,5.998797330e-06,-1.240867718e-06,-2.239069917e-06,-5.470130794e-06,-1.995898933e-06,6.912707808e-07,-1.716605537e-06,-7.312480603e-07,-1.779305488e-06,9.680161922e-08,-1.592458760e-06,6.344757802e-05,-1.638902609e-05
-0.05,1.654036804e-07,-2.003475210e-05,-5.123184028e-06,-3.391964872e-06,-1.316386679e-06,-2.805952509e-06,6.409392864e-07,4.433084179e-07,-4.699010509e-06,-1.067444890e-06,-2.107924669e-06,1.944954832e-06,-1.182609902e-06,-3.524002797e-06,-3.219367452e-06,-1.409322130e-06,-8.979814391e-06,-3.562470584e-06,-4.521742450e-06,-5.885098447e-06,-5.532470159e-06,-5.213328675e-06,-3.225868127e-06,-5.264238707e-06,-4.656484288e-06,-5.131214095e-06,-5.323504909e-06,-3.834397094e-06,4.342184747e-05,-1.866117443e-05
-0.045,1.158639633e-06,-2.146556514e-05,-4.908023044e-06,-7.173506963e-06,-4.573574384e-06,-6.825606024e-06,6.660293135e-07,-2.022467382e-06,-7.029573223e-06,-2.852805079e-06,-3.026903849e-06,1.901500108e-06,-1.750310197e-06,-3.573393415e-06,-2.785025157e-06,-1.252956069e-06,-1.500212194e-06,-1.015650118e-05,-7.005202842e-06,-7.623365013e-06,-2.905378001e-06,-6.633523090e-06,-6.919942950e-06,-6.574124623e-06,-6.781852623e-06,-6.138979432e-06,-8.186170470e-06,-4.253360870e-06,-6.111732569e-05,3.041238484e-05
-0.04,1.083950243e-06,-1.054686459e-05,-3.761304271e-06,-8.486826369e-06,-3.808532009e-06,-6.814785202e-06,1.162256541e-06,-2.257885404e-06,-5.644215674e-06,-1.923384217e-06,-1.604407489e-06,1.272395284e-06,-4.002392565e-07,-8.970728734e-07,-2.827241334e-08,-5.347005590e-07,4.904841533e-06,-1.037923523e-05,-7.134280507e-06,-6.376584700e-06,-6.142976170e-07,-4.953293864e-06,-7.416720106e-06,-4.335014877e-06,-5.363805998e-06,-3.195376840e-06,-6.549955157e-06,-2.253568667e-06,-3.809068609e-05,3.177942792e-05
-0.035,-1.741446666e-06,3.031886372e-06,-3.365357485e-06,-7.096840250e-06,-5.506919296e-07,-2.932955563e-06,2.094274425e-06,-5.466274672e-07,-1.392359228e-06,3.209416098e-07,1.317945419e-06,8.236410314e-07,1.994412975e-06,3.157754306e-06,3.618212364e-06,1.071869147e-06,-8.532214651e-07,-6.819145850e-06,-4.927202914e-06,-2.918728865e-06,-1.193817280e-06,-9.654451916e-07,-4.418402367e-06,-4.370712434e-08,-1.655795518e-06,1.783479938e-06,-2.742459115e-06,7.734204151e-07,6.127023744e-05,1.858729562e-07
-0.03,-7.208527003e-06,8.452409636e-06,-4.565529743e-06,-3.999402831e-06,1.881921195e-06,1.623720426e-06,2.849869402e-06,1.208399437e-06,2.478545012e-06,1.663654730e-06,3.418084527e-06,7.561564551e-07,3.600276496e-06,5.649969509e-06,5.532992523e-06,3.163000976e-06,-1.428659259e-05,-4.389872094e-06,-2.338795312e-06,3.352942934e-07,-4.174923303e-06,2.609045127e-06,-9.085685782e-07,3.128764978e-06,1.109981634e-06,4.789291834e-06,-7.176682487e-07,2.415162707e-06,4.539374670e-05,-1.440883463e-05
-0.025,-1.220701754e-05,4.368821418e-06,-6.220669982e-06,-1.323067474e-06,1.502795446e-06,3.225563673e-06,2.934470011e-06,9.404301791e-07,2.913472060e-06,1.156031488e-06,2.664632098e-06,4.966367722e-07,3.030422078e-06,4.578195763e-06,4.101526903e-06,4.528029648e-06,-1.941634130e-05,-4.786244745e-06,-1.563690227e-06,1.073816263e-06,-6.698013941e-06,3.206120493e-06,-1.878346971e-07,2.993918388e-06,8.395722283e-07,3.455674892e-06,-1.814848639e-06,1.358128944e-06,-4.955753958e-05,1.687588322e-05
-0.02,-1.270538938e-05,-1.321812099e-06,-6.318896944e-06,-1.228040398e-06,-9.493557996e-07,5.861760756e-07,2.675187638e-06,-1.992189430e-06,-5.033358835e-07,-4.823142387e-07,-1.005373302e-06,-4.566038122e-07,3.328149925e-07,6.241699688e-07,1.556612681e-07,4.074209958e-06,-7.928896376e-06,-5.079900618e-06,-3.009660525e-06,-1.188394116e-06,-6.288808862e-06,5.384579342e-07,-2.176318728e-06,-5.236691702e-08,-1.489031468e-06,-8.161213712e-07,-3.578537859e-06,-1.393301256e-06,-4.164843908e-05,8.237844745e-06
-0.015,-7.612080449e-06,-1.467817665e-06,-4.420167942e-06,-3.998418070e-06,-3.277310912e-06,-4.464559135e-06,2.565488269e-06,-6.289229386e-06,-5.397080276e-06,-2.135782063e-06,-5.596393324e-06,-1.783465781e-06,-3.176573570e-06,-3.627422160e-06,-3.779791729e-06,1.951885478e-06,9.693482822e-06,-1.759181275e-06,-5.033080787e-06,-4.880442396e-06,-2.766058041e-06,-3.256033475e-06,-3.046151728e-06,-3.772829951e-06,-3.081493283e-06,-4.504751640e-06,-2.806296499e-06,-3.490259290e-06,5.145911720e-05,-2.949857717e-05
-0.01,-2.436633886e-07,2.561385332e-06,-2.508166614e-06,-7.160961202e-06,-4.004636043e-06,-8.485608732e-06,2.017365511e-06,-9.530975440e-06,-8.661822993e-06,-3.382331556e-06,-8.573581031e-06,-2.667740509e-06,-5.899887502e-06,-6.042974512e-06,-5.676942558e-06,-4.152538758e-07,1.521130285e-05,4.586650474e-06,-5.634677114e-06,-7.668432392e-06,2.204735882e-06,-5.507355826e-06,9.942150868e-07,-6.093394401e-06,-2.286891370e-06,-5.431920421e-06,7.224341158e-07,-3.469626229e-06,2.420156368e-05,-2.164341893e-05
-0.005,4.517978655e-06,3.759506073e-06,-2.876956385e-06,-7.366965264e-06,-3.375085751e-06,-8.902181184e-06,-2.496893699e-07,-9.770585818e-06,-8.760753259e-06,-4.276512680e-06,-8.650297674e-06,-2.765234582e-06,-6.914630138e-06,-6.430999501e-06,-5.489549156e-06,-1.631666930e-06,3.326395313e-06,9.489126563e-06,-4.344570770e-06,-8.090758829e-06,6.637696062e-06,-5.122291024e-06,9.405210136e-06,-6.405878487e-06,-6.393068714e-08,-4.335408082e-06,3.990278274e-06,-1.997838502e-06,-7.958890508e-05,8.544205766e-07
0,4.503969843e-06,-1.471048277e-06,-5.291189353e-06,-3.892948568e-06,-2.711416192e-06,-5.762738136e-06,-3.986041157e-06,-6.916924141e-06,-6.444567801e-06,-4.659468954e-06,-6.456873589e-06,-2.569604812e-06,-6.333405162e-06,-5.962735391e-06,-4.647533064e-06,-1.657439471e-06,-1.234480077e-05,9.590910493e-06,-2.511365621e-06,-6.356855184e-06,9.058312587e-06,-3.102295422e-06,1.700773619e-05,-5.376916074e-06,1.369475166e-06,-3.290487031e-06,4.066089073e-06,-9.561644849e-07,-6.030247831e-05,-3.043616319e-05
0.005,1.529839071e-06,-9.201540918e-06,-6.903548205e-06,1.489166807e-08,-3.092749692e-06,-1.616752076e-06,-6.368154565e-06,-2.909343670e-06,-3.703943377e-06,-4.254021769e-06,-3.773023514e-06,-2.722898905e-06,-5.002714667e-06,-5.597987455e-06,-4.346037240e-06,-1.676742619e-06,-1.496709642e-05,6.488287561e-06,-1.917110734e-06,-3.953581334e-06,8.642485583e-06,-1.320138771e-06,1.830383107e-05,-4.003190576e-06,9.263366914e-07,-3.238230522e-06,1.168162710e-06,-1.461665210e-06,4.257099894e-05,-5.050017494e-05
0.01,-1.282994882e-06,-1.301101593e-05,-5.384743238e-06,1.553047213e-07,-4.434533288e-06,4.917167562e-07,-4.591613680e-06,-3.102615834e-07,-2.148521661e-06,-3.333402525e-06,-2.109537713e-06,-3.157930135e-06,-3.802095657e-06,-5.316763222e-06,-4.467273525e-06,-2.600158186e-06,-3.281981484e-06,4.558125031e-06,-3.172507580e-06,-2.489906143e-06,5.687168987e-06,-8.928114964e-07,1.240951403e-05,-2.941442111e-06,-5.074056312e-07,-3.409785050e-06,-1.802151288e-06,-2.899168847e-06,2.143945317e-05,-1.016347179e-05
0.015,-2.810475622e-06,-1.136474500e-05,-1.807199752e-06,-4.010908774e-06,-5.527575826e-06,-5.308876233e-07,1.586561914e-07,-2.427547764e-07,-2.095151812e-06,-2.716575018e-06,-1.759635139e-06,-3.154367764e-06,-3.008236208e-06,-4.655099155e-06,-4.066909721e-06,-3.907417410e-06,8.052347059e-06,5.125790194e-06,-5.323242522e-06,-2.588789016e-06,2.174903427e-06,-1.538564221e-06,3.896539720e-06,-2.394820482e-06,-1.330617559e-06,-2.802073661e-06,-2.392772727e-06,-3.783904217e-06,-8.067336806e-05,3.708440618e-05
0.02,-4.419057543e-06,-8.596258422e-06,1.749133445e-07,-8.448335710e-06,-5.064165041e-06,-3.070583733e-06,2.574438736e-06,-1.523540927e-06,-2.803011471e-06,-2.819491094e-06,-1.952049390e-06,-2.239636478e-06,-2.242944771e-06,-3.564925638e-06,-2.668816914e-06,-4.236131922e-06,5.875451968e-06,4.339104276e-06,-6.853026460e-06,-3.603610143e-06,8.897160350e-07,-2.222420743e-06,-1.209026847e-06,-2.271890840e-06,-9.044178328e-07,-1.551205640e-06,-7.707106573e-07,-3.325153880e-06,-6.198328897e-05,2.961807979e-05
0.025,-7.813878114e-06,-9.137426101e-06,-1.858881005e-06,-8.912015279e-06,-3.023759167e-06,-4.611332283e-06,-1.533297500e-06,-2.016950698e-06,-3.409840791e-06,-3.052512556e-06,-1.855974577e-06,-8.334416213e-07,-1.131121401e-06,-2.589434711e-06,-9.380210128e-07,-3.104321226e-06,-7.157700636e-06,-1.809104144e-06,-7.085927706e-06,-4.412368792e-06,2.854015572e-06,-2.319257789e-06,-4.502875136e-07,-2.414179554e-06,5.227936431e-08,-6.584745949e-07,1.131139510e-06,-2.049413192e-06,3.236343336e-05,-2.661048343e-05
0.03,-1.302202735e-05,-1.240617375e-05,-6.491683164e-06,-5.870119175e-06,-1.149448353e-06,-4.423074887e-06,-9.918141250e-06,-9.778979966e-07,-3.735316980e-06,-2.599451565e-06,-1.497770510e-06,1.337068532e-07,-3.724789205e-08,-2.375831734e-06,-1.234818097e-07,-1.720941510e-06,-1.697475191e-05,-1.093605470e-05,-6.771151729e-06,-4.633451730e-06,5.598540612e-06,-2.240882937e-06,3.565613713e-06,-2.842490880e-06,3.534524698e-07,-7.896962326e-07,1.927034991e-06,-1.079040807e-06,7.108633292e-06,-3.799751611e-05
0.035,-1.826822012e-05,-1.403400759e-05,-9.956671758e-06,-4.080645049e-06,-1.629473215e-06,-4.240003762e-06,-1.515802314e-05,1.512522728e-07,-4.308118787e-06,-1.692825731e-06,-1.698222214e-06,1.728194276e-07,4.646090277e-08,-3.179728732e-06,-9.185109475e-07,-1.774505942e-06,-1.433914243e-05,-1.499660514e-05,-7.354353372e-06,-5.049659293e-06,4.948565280e-06,-3.004897855e-06,6.160871921e-06,-3.811674978e-06,-6.529288382e-07,-1.766530178e-06,1.720024009e-06,-1.050502913e-06,-9.498124194e-05,1.375365197e-05
0.04,-2.107690863e-05,-1.121276994e-05,-9.996459815e-06,-6.940413796e-06,-4.855894656e-06,-5.999671826e-06,-1.213843443e-05,-4.854310248e-07,-5.622232035e-06,-1.573913435e-06,-3.046198571e-06,-3.214206855e-07,-1.429174840e-06,-4.732069872e-06,-2.834206795e-06,-3.454344658e-06,-3.787149255e-06,-9.124403850e-06,-9.521128881e-06,-6.656370596e-06,-6.789635037e-07,-5.129819533e-06,4.855904772e-06,-5.441946797e-06,-2.767791485e-06,-3.094060931e-06,1.069602123e-06,-1.742301333e-06,-6.927508432e-05,2.230309274e-05
0.045,-1.941886256e-05,-5.766349122e-06,-7.862533855e-06,-1.211143999e-05,-8.587617404e-06,-9.108932264e-06,-3.761885517e-06,-2.766277754e-06,-7.359290169e-06,-2.923525097e-06,-4.985958655e-06,-5.831646631e-07,-3.675088786e-06,-6.387068221e-06,-4.605657559e-06,-5.016937200e-06,3.226156564e-06,1.235851950e-06,-1.228252137e-05,-9.238625515e-06,-7.967890420e-06,-7.884265513e-06,9.570343659e-07,-7.215791462e-06,-5.173970682e-06,-4.494686406e-06,-8.252353868e-08,-2.512989709e-06,3.515448097e-05,-1.635733470e-05
0.05,-1.286702657e-05,-2.118724438e-06,-6.540969688e-06,-1.378880194e-05,-9.844554271e-06,-1.058202248e-05,1.825520652e-06,-4.480579955e-06,-8.462981403e-06,-4.721602143e-06,-6.154023380e-06,-3.231808064e-07,-5.075325406e-06,-7.447993134e-06,-5.237534937e-06,-4.576976959e-06,9.174260803e-07,4.615139664e-06,-1.356631109e-05,-1.113430790e-05,-1.142679068e-05,-9.709028849e-06,-2.449809505e-06,-8.090599644e-06,-6.847696755e-06,-5.762731907e-06,-1.948334505e-06,-2.901155200e-06,1.086346009e-05,-1.926623465e-05
0.055,-3.823010627e-06,-3.184036213e-06,-7.501885303e-06,-9.263892961e-06,-7.896020338e-06,-8.288901752e-06,-2.857899116e-07,-3.848975841e-06,-8.162110530e-06,-5.223587705e-06,-5.820336858e-06,-7.915869006e-09,-4.818974094e-06,-7.639166620e-06,-4.801310385e-06,-2.223201211e-06,-6.847167589e-06,-3.813830581e-06,-1.201159249e-05,-1.072682501e-05,-8.707972835e-06,-9.565295778e-06,-3.537377194e-06,-7.475649475e-06,-7.080576724e-06,-6.508084100e-06,-3.782356323e-06,-2.867823878e-06,-8.477033192e-05,2.842843458e-05
0.06,2.585784701e-06,-8.458076030e-06,-9.527430599e-06,-2.270285707e-06,-5.112902830e-06,-3.771180525e-06,-7.004731874e-06,-1.791828569e-06,-6.937369413e-06,-4.085906504e-06,-4.896094295e-06,-3.401686200e-07,-3.862172767e-06,-7.421764332e-06,-4.304807348e-06,-3.077739271e-08,-1.320910309e-05,-1.543092491e-05,-8.407365593e-06,-8.217957498e-06,-2.853213892e-06,-7.940250304e-06,-2.775564102e-06,-6.148592112e-06,-6.007049957e-06,-6.512055341e-06,-4.093921635e-06,-2.667962660e-06,-5.963052580e-05,1.684820798e-05
0.065,1.470600374e-06,-1.514851179e-05,-1.045596390e-05,7.452686262e-07,-4.537861862e-06,-1.195813498e-06,-1.130502342e-05,-1.124823294e-06,-6.263794599e-06,-2.984721861e-06,-5.172640728e-06,-1.510625699e-06,-3.930399752e-06,-7.661101942e-06,-4.697243246e-06,1.707236516e-07,-1.571308131e-05,-1.658010734e-05,-5.279184465e-06,-5.666495488e-06,1.021055036e-06,-6.416308384e-06,-1.533637333e-06,-5.849665154e-06,-4.652733388e-06,-6.267458469e-06,-2.331956568e-06,-2.559818504e-06,3.491970400e-05,-3.947491478e-05
0.07,-7.403043604e-06,-2.020357638e-05,-9.520373282e-06,-2.857326180e-06,-6.755901596e-06,-3.259884311e-06,-1.000206605e-05,-3.430681161e-06,-7.175283986e-06,-3.743819385e-06,-7.355063521e-06,-2.932792221e-06,-5.508722871e-06,-8.700592214e-06,-5.853662111e-06,-1.176129682e-06,-1.641695385e-05,-4.199078117e-06,-4.777074906e-06,-5.051735723e-06,8.921505943e-07,-6.143516139e-06,-3.895495954e-07,-7.596754071e-06,-4.170895630e-06,-6.669151045e-06,6.454031134e-08,-2.517459790e-06,1.516981337e-05,-5.053862077e-05
0.075,-1.813164042e-05,-2.158993160e-05,-7.844022668e-06,-9.835201884e-06,-9.587803750e-06,-8.453757937e-06,-6.255644289e-06,-7.243923103e-06,-9.107921409e-06,-6.128730987e-06,-1.002956545e-05,-3.689242048e-06,-7.150710557e-06,-9.774779481e-06,-6.539632509e-06,-1.865176413e-06,-1.710978217e-05,9.237461153e-06,-6.802858214e-06,-6.378664351e-06,-8.300857891e-07,-6.803273126e-06,8.889118168e-07,-1.041577376e-05,-4.820367758e-06,-7.892810223e-06,8.951528953e-07,-2.140254338e-06,-8.942557133e-05,-1.158310328e-05
0.08,-2.290861636e-05,-1.900322174e-05,-7.096892699e-06,-1.520025821e-05,-1.090432932e-05,-1.273269567e-05,-4.715919719e-06,-9.768533240e-06,-1.039609781e-05,-8.072428370e-06,-1.094280537e-05,-3.322512562e-06,-7.083322455e-06,-9.638790150e-06,-5.559119939e-06,-4.793476015e-07,-1.692466174e-05,8.562683581e-06,-9.286660349e-06,-7.921911336e-06,-8.980230639e-07,-7.212915773e-06,2.113057906e-06,-1.206963743e-05,-5.771569815e-06,-8.866604698e-06,-4.622919929e-07,-9.750028898e-07,-6.749803346e-05,-7.372045122e-06
0.085,-1.894406924e-05,-1.430971547e-05,-8.093793456e-06,-1.732253634e-05,-1.116911416e-05,-1.374081586e-05,-6.043781582e-06,-1.014384334e-05,-1.005151792e-05,-8.177600460e-06,-9.416434350e-06,-2.315032445e-06,-5.358865577e-06,-7.962783758e-06,-3.080621821e-06,1.875156534e-06,-1.459001973e-05,-6.961533881e-06,-1.041180949e-05,-8.336455800e-06,7.787796823e-07,-6.893645270e-06,2.215482644e-06,-1.125950679e-05,-6.052707391e-06,-8.307393327e-06,-2.357938193e-06,8.742394976e-07,3.838819200e-05,-3.518568038e-05
0.09,-1.126287285e-05,-1.088840264e-05,-1.051430301e-05,-1.839835938e-05,-1.263612513e-05,-1.290983927e-05,-7.402198639e-06,-1.033422823e-05,-8.907816071e-06,-7.421679925e-06,-7.224110254e-06,-1.768137143e-06,-3.970922054e-06,-5.911667526e-06,-7.442650157e-07,2.682752850e-06,-1.109220499e-05,-2.200466320e-05,-1.048062236e-05,-8.207488030e-06,1.330926380e-06,-6.751394334e-06,4.926740675e-07,-8.973050290e-06,-5.604897485e-06,-6.316830481e-06,-2.759923141e-06,2.473717210e-06,1.452508254e-05,-2.614384882e-05
0.095,-7.977917369e-06,-1.133772617e-05,-1.337083926e-05,-2.068609623e-05,-1.617175445e-05,-1.326638377e-05,-7.232158931e-06,-1.250883825e-05,-8.750741553e-06,-7.838375609e-06,-6.773579655e-06,-2.396713537e-06,-4.626850347e-06,-5.032038826e-06,-2.377981651e-07,8.222130455e-07,-8.936361321e-06,-2.181018383e-05,-1.138015651e-05,-9.230200165e-06,-1.356324695e-06,-7.984369349e-06,-1.908972222e-06,-7.424667409e-06,-5.210367633e-06,-4.558131457e-06,-1.562548858e-06,2.657083330e-06,-8.064479572e-05,1.829106572e-06
0.1,-1.237501331e-05,-1.509003633e-05,-1.545686568e-05,-2.355841568e-05,-1.957836356e-05,-1.566008344e-05,-7.272672641e-06,-1.602895689e-05,-1.027521283e-05,-9.704201437e-06,-8.473178140e-06,-3.676016883e-06,-6.698234249e-06,-5.568857168e-06,-1.671714123e-06,-2.055722293e-06,-9.366364675e-06,-8.543254734e-06,-1.417974662e-05,-1.196617865e-05,-6.099952494e-06,-1.044442415e-05,-2.399991227e-06,-7.705414394e-06,-5.408990587e-06,-4.575046934e-06,-6.070367528e-07,1.113630408e-06,-5.517987261e-05,1.773383125e-05
0.105,-1.983236884e-05,-1.852493529e-05,-1.577112440e-05,-2.455288753e-05,-1.956282055e-05,-1.774840453e-05,-9.171009977e-06,-1.773971404e-05,-1.214643141e-05,-1.080222694e-05,-1.024222284e-05,-4.108763319e-06,-7.823065963e-06,-6.222778982e-06,-3.481118823e-06,-3.167496285e-06,-1.128310049e-05,1.578507848e-06,-1.753787692e-05,-1.482221554e-05,-9.849831581e-06,-1.245064552e-05,6.407683087e-07,-8.772299989e-06,-5.795872061e-06,-6.127008546e-06,-1.458162199e-06,-1.177304209e-06,3.048275999e-05,-1.773616990e-05
0.11,-2.277823100e-05,-1.813912691e-05,-1.421259925e-05,-2.242783231e-05,-1.521665102e-05,-1.673294410e-05,-1.092184109e-05,-1.539121885e-05,-1.232087839e-05,-8.948850105e-06,-9.806160015e-06,-2.657832743e-06,-6.587770991e-06,-5.782482059e-06,-4.061446527e-06,-1.504043518e-06,-1.283213458e-05,-2.821032606e-06,-1.882262700e-05,-1.551257902e-05,-1.091495459e-05,-1.242913953e-05,5.819685513e-06,-8.878733527e-06,-5.614550414e-06,-7.534905771e-06,-3.641668719e-06,-2.807950499e-06,1.610555446e-05,-1.391438314e-05
0.115,-1.850225934e-05,-1.403400806e-05,-1.207342468e-05,-1.836057264e-05,-9.135667199e-06,-1.257097651e-05,-8.890975752e-06,-1.027562269e-05,-1.023356900e-05,-4.893920961e-06,-7.228604765e-06,-5.096905262e-08,-4.209964398e-06,-4.731087424e-06,-3.423397351e-06,1.151628907e-06,-1.335237350e-05,-1.541769583e-05,-1.684036326e-05,-1.338403190e-05,-1.002809241e-05,-1.055437910e-05,9.410771678e-06,-7.690678386e-06,-4.860892741e-06,-7.641360178e-06,-5.363539134e-06,-3.295704590e-06,-8.246751484e-05,2.061967327e-05
0.12,-1.173486722e-05,-1.019267452e-05,-1.136733121e-05,-1.440335179e-05,-5.022194593e-06,-8.048054454e-06,-3.365453917e-06,-6.010495715e-06,-7.392831686e-06,-1.961852777e-06,-4.793539185e-06,1.579589829e-06,-3.212890255e-06,-4.759607508e-06,-3.036317218e-06,2.162042916e-06,-1.362237215e-05,-2.033303408e-05,-1.315554612e-05,-9.976688167e-06,-8.508518160e-06,-8.454537647e-06,8.443708692e-06,-6.541892454e-06,-4.386149416e-06,-7.008882414e-06,-5.639206037e-06,-3.424650860e-06,-6.887096091e-05,1.141115788e-05
0.125,-9.569013076e-06,-1.094096432e-05,-1.304026985e-05,-1.160752250e-05,-4.436262925e-06,-5.815406994e-06,7.157657287e-08,-4.828132638e-06,-5.681017985e-06,-2.528215408e-06,-4.377593336e-06,7.117831068e-07,-4.571100524e-06,-6.590071194e-06,-4.025125086e-06,7.570668096e-07,-1.469797796e-05,-1.128299895e-05,-1.045532028e-05,-7.249423808e-06,-6.446673330e-06,-7.289313130e-06,3.342827883e-06,-6.567274500e-06,-4.769826665e-06,-6.942621867e-06,-5.162065884e-06,-4.151936656e-06,2.917504959e-05,-2.683507756e-05
0.13,-1.427675248e-05,-1.675637499e-05,-1.569531880e-05,-9.859328502e-06,-5.972573086e-06,-5.827502605e-06,-3.605843106e-06,-5.541237219e-06,-5.302020587e-06,-5.297322196e-06,-5.370816332e-06,-1.867152064e-06,-6.622048250e-06,-8.729058455e-06,-5.790276288e-06,-1.400920872e-06,-1.674296707e-05,1.237486146e-06,-9.734557294e-06,-5.593890843e-06,-3.297457756e-06,-6.494399072e-06,-2.411320631e-06,-7.087922610e-06,-5.419617236e-06,-7.660457545e-06,-5.028515447e-06,-5.366152605e-06,1.198584826e-05,-2.575380657e-05
0.135,-2.140805853e-05,-2.340999830e-05,-1.648806131e-05,-8.828887661e-06,-7.246649818e-06,-5.895068095e-06,-1.227476075e-05,-5.338405083e-06,-4.755820392e-06,-6.649855721e-06,-5.557651136e-06,-3.689066451e-06,-7.003913513e-06,-8.877229579e-06,-6.664357518e-06,-2.265904573e-06,-1.868194859e-05,2.959581836e-06,-9.474574988e-06,-3.925106111e-06,3.185899133e-07,-4.751875386e-06,-5.278869320e-06,-6.359442832e-06,-5.190300710e-06,-7.978498345e-06,-5.189904562e-06,-6.012587074e-06,-8.418273174e-05,1.422874355e-05
0.14,-2.470134995e-05,-2.544110946e-05,-1.376855263e-05,-8.416042592e-06,-7.255101307e-06,-4.434977167e-06,-1.782890598e-05,-3.180291950e-06,-2.854631255e-06,-4.691206237e-06,-3.864943693e-06,-3.194272915e-06,-5.359806887e-06,-6.549484363e-06,-5.830287919e-06,-1.651348454e-06,-1.893687235e-05,-7.230123978e-06,-7.745784954e-06,-1.594585737e-06,2.463242498e-06,-2.035752300e-06,-4.515072152e-06,-3.862560087e-06,-3.862005455e-06,-6.886639104e-06,-4.682547821e-06,-5.432724519e-06,-6.405174929e-05,4.077463652e-06
0.145,-2.232714811e-05,-2.093695886e-05,-8.965295316e-06,-8.484381741e-06,-6.827361957e-06,-2.194774408e-06,-1.467225879e-05,-8.980283367e-07,-3.453277030e-07,-1.420693558e-06,-1.659466151e-06,-1.538830570e-06,-3.666340406e-06,-3.796992350e-06,-4.200068017e-06,-1.175184265e-06,-1.708652305e-05,-1.702088990e-05,-4.765121763e-06,3.433106778e-07,1.876249139e-06,-1.257416369e-07,-2.325383247e-06,-1.266630521e-06,-2.556627564e-06,-4.913930479e-06,-3.192373036e-06,-4.209572947e-06,3.442560287e-05,-2.928978759e-05
0.15,-1.807035396e-05,-1.322790106e-05,-5.598906940e-06,-8.821356266e-06,-7.228856375e-06,-1.159059936e-06,-5.952859587e-06,-9.028719240e-07,8.819151201e-07,-5.003962655e-07,-1.026550504e-06,-1.415729900e-06,-3.839117919e-06,-2.979005094e-06,-3.189873195e-06,-2.123063154e-06,-1.508838938e-05,-1.667926878e-05,-2.845993527e-06,2.056230987e-07,-4.024939477e-07,-6.908695233e-07,-1.352377098e-06,-6.652815194e-07,-2.376859629e-06,-3.452555920e-06,-1.714620971e-06,-3.395759226e-06,1.459005832e-05,-2.322618520e-05
0.155,-1.665660922e-05,-7.767917624e-06,-6.079861166e-06,-9.478078280e-06,-8.674351489e-06,-2.106797034e-06,-1.350323455e-07,-3.296348552e-06,1.251410888e-07,-3.127190354e-06,-2.127969916e-06,-3.943000614e-06,-5.448357086e-06,-4.044276966e-06,-2.911120513e-06,-3.795487877e-06,-1.592330717e-05,-1.078209180e-05,-3.696050608e-06,-2.087469929e-06,-1.929079462e-06,-3.047097591e-06,-1.966524598e-06,-2.036335598e-06,-2.864866785e-06,-2.911686888e-06,-1.332504297e-06,-3.095118097e-06,-8.829347240e-05,1.789127290e-05
0.16,-1.841874634e-05,-7.001710887e-06,-9.305422070e-06,-1.062503444e-05,-1.014247598e-05,-3.666526155e-06,-1.771331192e-06,-5.703451432e-06,-1.089130557e-06,-6.696273546e-06,-2.904077309e-06,-7.077786662e-06,-6.224760295e-06,-4.538321600e-06,-2.073223341e-06,-4.264362301e-06,-1.975276933e-05,-1.088634820e-05,-6.203149870e-06,-4.368131187e-06,-1.266447150e-06,-4.390769132e-06,-1.973065809e-06,-3.038301293e-06,-2.341589405e-06,-2.191001466e-06,-1.740024114e-06,-2.306063051e-06,-6.730800905e-05,1.280641083e-05
0.165,-1.889062119e-05,-8.247178693e-06,-1.149799164e-05,-1.180566266e-05,-1.042082133e-05,-3.859608503e-06,-7.073798711e-06,-5.918487494e-06,-6.576079836e-07,-7.734364626e-06,-1.566614187e-06,-7.564224673e-06,-4.743880412e-06,-2.459236718e-06,2.040542924e-07,-2.642678875e-06,-2.171712019e-05,-1.877667453e-05,-7.412093351e-06,-4.201433450e-06,8.495922835e-07,-2.623165713e-06,9.044688091e-07,-1.612953077e-06,2.071475578e-08,-2.883477329e-07,-1.563333398e-06,-3.707961525e-07,2.653445638e-05,-5.143958479e-05
0.17,-1.370009169e-05,-6.980096635e-06,-9.654629587e-06,-1.184226814e-05,-9.306042502e-06,-2.289570853e-06,-8.995047782e-06,-4.268880060e-06,1.609685903e-06,-5.681867455e-06,1.129773200e-06,-4.450329105e-06,-2.108018579e-06,1.318443995e-06,2.949175882e-06,-2.139676568e-07,-1.567325891e-05,-2.231155705e-05,-5.723746335e-06,-1.446364594e-06,2.609562378e-06,1.233141262e-06,6.108544654e-06,1.564750980e-06,2.836547210e-06,2.037433987e-06,-1.663995827e-07,1.816513743e-06,1.042934558e-05,-4.283259753e-05
0.175,-3.750014235e-06,-2.371422830e-06,-4.411274849e-06,-1.009557863e-05,-7.885974546e-06,-4.847955402e-07,-5.362706738e-06,-3.025838919e-06,3.687647028e-06,-3.194110132e-06,2.707668086e-06,-2.471197753e-07,-6.128229734e-07,3.954986744e-06,4.263202850e-06,9.374219559e-07,-1.791471502e-06,-1.031299199e-05,-2.688377000e-06,1.503397169e-06,2.835988372e-06,3.865705345e-06,9.964023592e-06,3.776716084e-06,3.731176100e-06,2.920126662e-06,1.419846703e-06,2.613917224e-06,-8.529124760e-05,2.718202593e-05
0.18,4.627273725e-06,9.671080356e-07,3.955505430e-07,-7.620161003e-06,-7.565241181e-06,-4.951428378e-08,-6.398295161e-07,-3.602600983e-06,3.752616977e-06,-2.741374600e-06,2.032778046e-06,1.675432802e-06,-9.435171570e-07,3.925999149e-06,3.694876190e-06,2.863073092e-07,1.054103142e-05,1.147232742e-05,-1.295845966e-06,2.208639053e-06,1.464321810e-06,3.082975339e-06,8.839745910e-06,3.444846937e-06,2.008065452e-06,1.810573392e-06,1.756488750e-06,1.716681816e-06,-6.688276078e-05,1.782819981e-05
0.185,4.956337232e-06,-2.408896201e-06,1.109222468e-06,-6.273140222e-06,-8.560213547e-06,-7.691369750e-07,-8.629566409e-08,-4.787499943e-06,2.512400733e-06,-3.617405977e-06,9.099851285e-07,5.858847750e-07,-1.250991694e-06,2.836971462e-06,3.116136856e-06,-4.852153781e-07,1.015604188e-05,2.393151815e-05,-2.670222932e-06,7.346609893e-07,-9.831473736e-07,1.548497328e-07,3.050085413e-06,2.082046733e-06,-3.130860767e-07,6.107941359e-07,8.863915563e-07,9.128826421e-07,3.747918892e-05,-2.596616466e-05
0.19,-3.513211863e-06,-1.222931937e-05,-2.529337670e-06,-6.403397706e-06,-9.330247800e-06,-8.762447909e-07,-3.896454144e-06,-4.094531841e-06,2.533371451e-06,-2.953390364e-06,2.058372787e-06,-1.142215974e-06,6.465933595e-07,3.529186498e-06,4.687700428e-06,6.038534883e-07,-4.029972769e-06,1.507531151e-05,-4.890992424e-06,-5.370106514e-07,-3.611770221e-06,-1.534986313e-06,-2.573300120e-06,2.558523090e-06,-5.159494338e-07,1.731319291e-06,3.615784026e-07,2.218890522e-06,1.413536225e-05,-3.243971290e-05
0.195,-1.480090871e-05,-2.134062502e-05,-7.230696582e-06,-6.133457800e-06,-7.879250796e-06,7.766848636e-07,-7.866868757e-06,-7.970224365e-07,5.137242376e-06,4.419567702e-07,5.650962316e-06,-1.023461005e-06,4.362612039e-06,6.563927638e-06,8.044343638e-06,3.406141531e-06,-1.979694659e-05,-6.057616254e-06,-5.172242306e-06,4.064132993e-07,-4.951984412e-06,-9.895887975e-08,-2.718159058e-06,5.568182201e-06,1.824669537e-06,5.078100299e-06,1.244420590e-06,5.309270196e-06,-7.741582852e-05,2.560419721e-05
0.2,-2.090368138e-05,-2.198963803e-05,-9.056208906e-06,-3.679828861e-06,-3.999033580e-06,3.147666971e-06,-8.652035272e-06,2.781999694e-06,8.499720981e-06,4.052635638e-06,8.576638725e-06,6.541007742e-07,6.786347746e-06,9.212960366e-06,1.012899132e-05,5.448473757e-06,-2.242584455e-05,-1.856222721e-05,-2.789170966e-06,3.058441553e-06,-3.506785978e-06,2.950091274e-06,3.277712329e-06,8.494710244e-06,4.280689808e-06,7.648476900e-06,2.597983854e-06,7.362386872e-06,-5.068048665e-05,4.595505230e-05
0.205,-1.784075372e-05,-1.333534211e-05,-6.552869469e-06,-5.323484416e-08,-7.187090902e-08,4.001460152e-06,-6.775892333e-06,3.391564541e-06,9.429008943e-06,4.101343211e-06,7.644147634e-06,1.394868414e-06,5.185349216e-06,8.345361074e-06,8.307655264e-06,4.387501625e-06,-9.207412059e-06,-1.157417002e-05,5.395894797e-07,5.160533140e-06,7.642911312e-07,4.580252548e-06,1.050783345e-05,8.253392701e-06,4.235368855e-06,6.632259230e-06,2.525459052e-06,5.903593007e-06,1.778158346e-05,-2.194836022e-05
0.21,-7.834401613e-06,-2.074770062e-06,-1.322276238e-06,1.651893300e-06,9.340924950e-07,2.542902640e-06,-4.622784720e-06,3.575843505e-07,7.038556499e-06,-8.235344861e-08,3.334153510e-06,-2.954861004e-07,3.677504428e-07,4.114733793e-06,3.517568804e-06,6.314414226e-07,8.041009531e-06,5.849402590e-06,2.958806040e-06,5.426118925e-06,5.788983462e-06,3.751836470e-06,1.323022555e-05,5.011247515e-06,1.920183917e-06,2.740657700e-06,6.681226946e-07,1.697937183e-06,-6.373305054e-06,-1.418456362e-05
0.215,3.486937504e-06,4.550183229e-06,4.066352142e-06,1.143245486e-07,-1.390382878e-06,7.203415610e-07,-3.253942325e-06,-3.240820399e-06,4.111652336e-06,-4.761778808e-06,-1.978503915e-07,-2.968411798e-06,-3.608859526e-06,2.647258545e-07,-1.846449481e-07,-2.701153035e-06,1.549318292e-05,1.691388196e-05,4.522195032e-06,5.057829176e-06,9.031814017e-06,2.607591808e-06,1.063855844e-05,2.449435760e-06,4.299338183e-07,-8.788134647e-08,-8.734830649e-07,-1.596149404e-06,-1.163556648e-04,2.531064387e-05
0.22,1.141886988e-05,5.525466987e-06,8.342470132e-06,-1.907537139e-06,-4.027841563e-06,1.496549105e-06,-2.355570317e-06,-3.196416268e-06,4.389605885e-06,-5.282432265e-06,8.695199099e-07,-3.837179378e-06,-3.120678805e-06,5.218648977e-07,5.201247038e-07,-2.622596698e-06,1.107422438e-05,1.579333162e-05,6.630717846e-06,6.339364206e-06,1.010353708e-05,4.057299893e-06,7.491820934e-06,4.042326574e-06,2.591320296e-06,1.466822063e-06,5.084966860e-07,-8.507585211e-07,-1.106942295e-04,1.799814152e-05
0.225,1.414686639e-05,5.160999838e-06,1.171543049e-05,-2.286025260e-07,-3.320285266e-06,5.744857355e-06,-2.319241024e-06,1.851644032e-06,8.642206130e-06,-7.248336364e-07,6.212182900e-06,-1.918104838e-06,1.642377843e-06,4.875658039e-06,4.970015124e-06,8.832300250e-07,4.500630849e-06,1.131319039e-05,9.860867182e-06,9.963818000e-06,1.123677826e-05,8.529787069e-06,8.739810511e-06,9.380102486e-06,8.000388160e-06,6.773549238e-06,5.164238381e-06,3.580819504e-06,-1.252232095e-05,-2.590087208e-05
0.23,1.192395497e-05,6.281325590e-06,1.433026534e-05,5.806207287e-06,1.254020911e-06,1.113403094e-05,-4.405740465e-06,9.046088227e-06,1.384721841e-05,5.268692144e-06,1.178641350e-05,1.036443294e-06,7.025914547e-06,9.705248263e-06,9.347397348e-06,4.899392390e-06,4.717889054e-06,1.340227676e-05,1.305633192e-05,1.416726007e-05,1.467519556e-05,1.350718756e-05,1.400783771e-05,1.458760843e-05,1.334091565e-05,1.196358916e-05,1.063570669e-05,8.420880942e-06,-2.633480155e-05,-2.509227021e-05
0.235,5.964263021e-06,6.367034729e-06,1.534146766e-05,1.203351965e-05,6.389291346e-06,1.432495720e-05,-8.314163707e-06,1.391469747e-05,1.635000675e-05,8.298722858e-06,1.391340130e-05,2.743105692e-06,9.510798758e-06,1.153224730e-05,1.062355508e-05,6.453417198e-06,1.004229052e-05,2.031349285e-05,1.475769240e-05,1.659818876e-05,1.982404170e-05,1.621797749e-05,1.816627528e-05,1.632489846e-05,1.554474278e-05,1.379201156e-05,1.385645055e-05,1.075915925e-05,-1.300128005e-04,1.945025247e-05
0.24,-1.324531419e-06,1.637939780e-06,1.398621825e-05,1.377404645e-05,8.223362930e-06,1.417604048e-05,-1.102174356e-05,1.432110600e-05,1.546742793e-05,7.452124914e-06,1.260278318e-05,2.893263049e-06,8.787412226e-06,1.033533979e-05,9.362020393e-06,5.307572054e-06,1.193871519e-05,2.187224993e-05,1.501388782e-05,1.672897412e-05,2.362073764e-05,1.635590079e-05,1.733526561e-05,1.494712551e-05,1.444078305e-05,1.247483200e-05,1.371503729e-05,1.052772493e-05,-1.136284582e-04,2.562920678e-05
0.245,-6.111736911e-06,-6.226600709e-06,1.128699960e-05,1.088705696e-05,6.083925226e-06,1.255242528e-05,-9.555738728e-06,1.190713134e-05,1.368976613e-05,5.552951606e-06,1.082938329e-05,3.003055598e-06,7.341842323e-06,9.043333499e-06,8.555975722e-06,3.890520832e-06,6.529242648e-06,1.343029159e-05,1.521444754e-05,1.611794505e-05,2.385536823e-05,1.588855979e-05,1.331739100e-05,1.355982616e-05,1.235097282e-05,1.077299047e-05,1.151944612e-05,9.818741775e-06,-9.896306200e-06,-9.358533347e-06
0.25,-4.953885574e-06,-9.920771972e-06,9.876903300e-06,7.688783616e-06,2.751601795e-06,1.205425748e-05,-4.727746488e-06,9.927367226e-06,1.362320300e-05,5.585987936e-06,1.104259023e-05,4.113898356e-06,7.448114509e-06,1.009028193e-05,1.009861421e-05,4.600111919e-06,-5.877668171e-07,2.664895511e-06,1.620474228e-05,1.641341294e-05,2.155212427e-05,1.649223588e-05,1.124081721e-05,1.440454699e-05,1.147188404e-05,1.081593629e-05,9.380704348e-06,1.025713022e-05,-2.554843679e-05,-3.111390857e-05
0.255,2.118778094e-06,-4.242415204e-06,1.153132794e-05,7.972524480e-06,1.273561160e-06,1.337882569e-05,-7.661613167e-07,1.005522243e-05,1.535071671e-05,7.540933812e-06,1.291950575e-05,5.427013402e-06,9.020863752e-06,1.293791087e-05,1.286805317e-05,7.367382265e-06,-1.286227637e-06,1.101461105e-06,1.716578968e-05,1.754102847e-05,1.961292992e-05,1.775275807e-05,1.328972614e-05,1.675361642e-05,1.199623385e-05,1.228147921e-05,8.495231929e-06,1.145656229e-05,-1.277843351e-04,2.711530823e-05
0.26,1.063826958e-05,7.158474713e-06,1.498416175e-05,1.111983045e-05,2.096692144e-06,1.518522910e-05,-6.947299715e-07,1.141304694e-05,1.699532674e-05,9.001998072e-06,1.446046679e-05,5.503943958e-06,1.038174852e-05,1.505605943e-05,1.427680481e-05,9.924800565e-06,5.765541559e-06,1.091846223e-05,1.673663742e-05,1.811367245e-05,1.948994121e-05,1.809387486e-05,1.616752094e-05,1.834651243e-05,1.267939063e-05,1.350431588e-05,8.797671316e-06,1.193321440e-05,-1.114866389e-04,3.914438459e-06
0.265,1.481710083e-05,1.460108063e-05,1.678715544e-05,1.361372782e-05,3.473684795e-06,1.619805811e-05,-3.002031062e-06,1.229839614e-05,1.733958077e-05,8.305551910e-06,1.459929129e-05,4.258201937e-06,1.053622772e-05,1.489002871e-05,1.320463445e-05,1.026308184e-05,1.450161386e-05,2.249721593e-05,1.496344251e-05,1.739183865e-05,1.997896113e-05,1.705838078e-05,1.546550822e-05,1.822637108e-05,1.271098206e-05,1.367728454e-05,9.662186786e-06,1.100841193e-05,-1.060509936e-05,-3.886248527e-05
0.27,1.229897750e-05,1.227432625e-05,1.473647820e-05,1.351764903e-05,4.027365400e-06,1.672658802e-05,-3.840092071e-06,1.219904175e-05,1.718105718e-05,6.377764932e-06,1.416837075e-05,3.047393680e-06,1.010952814e-05,1.337612944e-05,1.099343769e-05,8.536116783e-06,1.890007986e-05,2.485846981e-05,1.356513133e-05,1.636225987e-05,1.939490728e-05,1.607890599e-05,1.159797345e-05,1.757819947e-05,1.258202106e-05,1.350066552e-05,1.053024721e-05,9.459517422e-06,-1.964099968e-05,-7.950787149e-06
0.275,5.888406491e-06,4.082970461e-06,1.030905340e-05,1.223368366e-05,4.107766938e-06,1.780816300e-05,-1.965126101e-06,1.187097230e-05,1.801204304e-05,5.340928835e-06,1.446159251e-05,2.822561301e-06,1.009255646e-05,1.255541718e-05,9.706223510e-06,6.507019017e-06,1.848433318e-05,1.672072522e-05,1.406089791e-05,1.665001463e-05,1.803986096e-05,1.682603493e-05,9.829237499e-06,1.793765025e-05,1.315949122e-05,1.390381102e-05,1.102267962e-05,8.456242416e-06,-1.242780397e-04,2.250590191e-05
0.28,5.430979173e-07,-1.211152888e-06,7.328557140e-06,1.185867307e-05,4.615792726e-06,1.933490292e-05,-4.061298080e-08,1.189161962e-05,1.993345313e-05,5.916282861e-06,1.551547648e-05,2.908521883e-06,1.031231560e-05,1.318473151e-05,9.913824555e-06,5.430741120e-06,1.612955855e-05,6.719154786e-06,1.591780910e-05,1.853507201e-05,1.760216258e-05,1.911746607e-05,1.398574159e-05,1.925655381e-05,1.432852421e-05,1.472998926e-05,1.089147028e-05,8.253347107e-06,-1.014670002e-04,2.326147242e-05
0.285,-1.145076829e-06,2.518554666e-07,8.120107662e-06,1.213200591e-05,5.326349000e-06,1.976895460e-05,-6.861879538e-07,1.182369419e-05,2.139444623e-05,6.801602114e-06,1.619719873e-05,2.108794140e-06,9.686796716e-06,1.410229135e-05,1.043413071e-05,4.867442589e-06,1.301347188e-05,4.197058950e-06,1.687688224e-05,2.033618283e-05,1.828823538e-05,2.081996245e-05,2.126210925e-05,2.010988689e-05,1.488173469e-05,1.495485976e-05,1.008565600e-05,8.079124370e-06,-4.061902218e-07,-2.519125496e-05
0.29,-4.143492130e-07,4.058074796e-06,1.121466140e-05,1.102258868e-05,5.118957257e-06,1.791279015e-05,-2.666745910e-06,1.100318585e-05,2.090366112e-05,6.514564392e-06,1.571225305e-05,6.489627055e-07,7.874559046e-06,1.380557437e-05,9.952028731e-06,3.646906893e-06,8.120831973e-06,1.095503736e-05,1.512689893e-05,1.988032040e-05,1.769851060e-05,1.986094400e-05,2.453412588e-05,1.948260085e-05,1.374282858e-05,1.393692018e-05,8.777198573e-06,7.113751069e-06,-1.398736708e-05,-9.624958784e-06
0.295,1.471454095e-07,3.864592778e-06,1.300538514e-05,7.838270805e-06,3.731082573e-06,1.450589736e-05,-2.518436219e-06,9.701796952e-06,1.855572360e-05,5.231412396e-06,1.450922576e-05,2.522115473e-07,6.093252109e-06,1.219177143e-05,8.462113937e-06,1.674158209e-06,1.988716638e-06,2.093651622e-05,1.103389303e-05,1.656870189e-05,1.343899864e-05,1.619855798e-05,1.981277009e-05,1.781135387e-05,1.112167982e-05,1.209882297e-05,7.253234373e-06,5.378143044e-06,-1.133384170e-04,2.981278213e-05
0.3,-3.466152336e-07,-7.472461995e-07,1.145977202e-05,4.453790859e-06,2.537564886e-06,1.160556926e-05,4.203463948e-07,8.971963365e-06,1.573487369e-05,4.441310076e-06,1.359343940e-05,2.063759708e-06,5.951141253e-06,1.052819527e-05,7.083545972e-06,3.970327326e-07,-1.963211393e-06,2.587647107e-05,6.792245468e-06,1.202425278e-05,6.593764576e-06,1.181470953e-05,1.041774239e-05,1.621324679e-05,8.390810245e-06,1.039685268e-05,5.881576211e-06,3.732972614e-06,-9.705759442e-05,2.034639896e-05
0.305,-8.527341615e-07,-4.320074412e-06,7.885697309e-06,3.011949880e-06,3.129405894e-06,1.046940221e-05,2.511180214e-06,9.313543212e-06,1.365622030e-05,5.079018985e-06,1.332572554e-05,5.056605771e-06,7.674862098e-06,9.972737461e-06,6.823553315e-06,1.412845054e-06,-1.347117185e-06,2.105635986e-05,4.554774787e-06,8.766693282e-06,1.617690692e-06,8.934422898e-06,3.304656033e-06,1.514786590e-05,6.879617519e-06,9.411847900e-06,5.190556401e-06,3.195067232e-06,2.731253591e-06,-7.433560354e-06
0.31,-6.158090281e-07,-2.778527800e-06,5.092692557e-06,3.240860551e-06,5.320634176e-06,1.044829014e-05,4.142628156e-07,9.918489302e-06,1.249630757e-05,6.508268414e-06,1.321407122e-05,7.067495482e-06,9.880745103e-06,1.049669003e-05,7.782137899e-06,4.820587540e-06,1.319347153e-06,7.919981432e-06,4.817241080e-06,8.149759961e-06,2.145831821e-06,8.266782988e-06,1.980463473e-06,1.416942517e-05,6.778935093e-06,9.058644658e-06,5.678978649e-06,4.227000248e-06,-2.061615215e-05,-7.055839772e-06
0.315,-6.181854822e-07,1.468771804e-06,4.273257525e-06,2.918234978e-06,6.990107533e-06,1.005537772e-05,-3.965981049e-06,9.549994788e-06,1.174629107e-05,7.406904120e-06,1.273613439e-05,7.253722031e-06,1.111627223e-05,1.125754888e-05,9.374247179e-06,9.094687611e-06,7.342365277e-07,-6.668891816e-06,6.213307102e-06,9.314419620e-06,7.096538870e-06,8.715108334e-06,3.898011169e-06,1.277325313e-05,7.085747113e-06,8.924879808e-06,7.200948850e-06,6.420291443e-06,-1.146300987e-04,3.033383651e-05
0.32,-2.370604737e-06,2.741321745e-06,4.054884662e-06,7.377414226e-07,6.010766734e-06,8.733030085e-06,-5.143723988e-06,8.022340913e-06,1.092682675e-05,7.224270512e-06,1.197278042e-05,6.869487202e-06,1.126339373e-05,1.164039480e-05,1.092026330e-05,1.244320806e-05,-5.036612872e-06,-1.433446449e-05,6.597543097e-06,9.973479543e-06,1.142662857e-05,8.517136962e-06,4.483474560e-06,1.103613577e-05,6.516672898e-06,8.613575605e-06,8.607900183e-06,8.670305370e-06,-1.058746645e-04,2.439580101e-05
0.325,-5.654960434e-06,-8.091868423e-07,2.443409727e-06,-2.206287603e-06,2.212744248e-06,7.222933898e-06,-1.085217713e-06,6.466905845e-06,9.814369449e-06,6.459912117e-06,1.132550266e-05,7.369467807e-06,1.120739440e-05,1.163764554e-05,1.190207703e-05,1.406254189e-05,-1.203170645e-05,-1.117641474e-05,4.593565249e-06,8.376986454e-06,1.088840373e-05,6.722558920e-06,2.382601356e-06,9.357590038e-06,4.580012873e-06,7.832491297e-06,8.475177409e-06,9.784842263e-06,-3.675711504e-06,-3.054753569e-05
0.33,-8.175392603e-06,-5.226584151e-06,-8.212393620e-07,-4.018217068e-06,-2.515007914e-06,6.389346766e-06,3.107037301e-06,6.056781480e-06,8.352695576e-06,5.754615233e-06,1.090423875e-05,8.303044845e-06,1.141237003e-05,1.136817141e-05,1.194955372e-05,1.412481251e-05,-1.478593772e-05,-1.686202567e-06,6.650120962e-07,4.857863181e-06,5.843677977e-06,3.896631456e-06,9.075766884e-10,7.942763040e-06,1.965960907e-06,6.480161299e-06,6.502587119e-06,9.232958552e-06,-1.941055422e-05,-1.739498432e-05
0.335,-7.810758751e-06,-6.146940057e-06,-4.077793918e-06,-4.287769905e-06,-5.811791139e-06,6.187867050e-06,3.449720153e-07,6.722289847e-06,6.755939411e-06,5.197881219e-06,1.047453925e-05,7.790591921e-06,1.132061228e-05,1.066714806e-05,1.094852227e-05,1.298285489e-05,-1.227655647e-05,4.273568180e-06,-3.094963889e-06,1.597400579e-06,3.665142974e-07,1.593018589e-06,-2.908400488e-07,6.807073153e-06,-3.848373969e-08,4.814992618e-06,3.983543244e-06,7.481411876e-06,-1.185172524e-04,2.303831571e-05
0.34,-5.107026879e-06,-4.480040442e-06,-5.585620434e-06,-4.073625182e-06,-6.487216893e-06,5.988114923e-06,-9.735595187e-06,7.350465758e-06,5.638999596e-06,4.636060514e-06,9.927897506e-06,5.076973496e-06,1.028717047e-05,9.399960949e-06,9.242397090e-06,1.085110153e-05,-8.412038527e-06,5.277218974e-07,-4.577944281e-06,6.877668155e-07,-2.019606674e-06,1.009132878e-06,9.735125872e-07,6.087814836e-06,-6.365764821e-07,3.395689374e-06,2.498679564e-06,5.572507587e-06,-1.043523454e-04,2.677867445e-05
0.345,-3.235917509e-06,-5.097296678e-06,-5.112849992e-06,-3.975093760e-06,-4.984502731e-06,5.580502123e-06,-1.893663372e-05,7.161468368e-06,5.658436326e-06,4.255306546e-06,9.530754679e-06,1.926231214e-06,8.743559901e-06,8.028736217e-06,7.574754016e-06,8.295761732e-06,-7.132366871e-06,-8.746561716e-06,-3.514951023e-06,2.200896574e-06,-1.329658293e-06,1.935922942e-06,1.608736104e-06,5.990384050e-06,-1.495655812e-07,2.679152083e-06,2.199903717e-06,4.325277703e-06,-3.786031082e-06,-2.547044955e-05
0.35,-5.183119181e-06,-1.018358364e-05,-3.704419733e-06,-3.206959171e-06,-2.694751195e-06,5.463151005e-06,-1.856357787e-05,6.618290993e-06,6.847514285e-06,4.459534664e-06,9.643619637e-06,9.755851490e-07,8.034287549e-06,7.555231990e-06,6.733312722e-06,6.591489282e-06,-8.446703385e-06,-1.264375317e-05,-1.729972400e-06,4.197267745e-06,-5.256778702e-08,3.043186747e-06,8.318947041e-07,6.437002106e-06,4.664900414e-07,2.731824774e-06,1.871889264e-06,3.981169634e-06,-1.857516010e-05,-1.376438941e-05
0.355,-1.069988613e-05,-1.568973272e-05,-2.363111036e-06,-9.690264820e-07,-8.998563099e-07,6.131251624e-06,-8.790004285e-06,6.835684979e-06,8.492528186e-06,5.231039216e-06,1.036970448e-05,2.928545544e-06,9.073041314e-06,8.737882972e-06,7.243527789e-06,7.069390797e-06,-9.550938780e-06,-4.904273612e-06,-1.240514030e-06,4.787127570e-06,1.934383049e-07,3.360316459e-06,1.567479782e-08,7.116392591e-06,7.881152911e-07,3.457704729e-06,8.802984526e-07,4.561977768e-06,-1.208411706e-04,1.510670870e-05
0.36,-1.592126348e-05,-1.558718811e-05,-1.372220820e-06,1.870134763e-06,-1.008410802e-07,7.352209658e-06,1.270286063e-06,8.157982755e-06,9.818766012e-06,5.949627948e-06,1.153939766e-05,5.892935629e-06,1.137705181e-05,1.136605282e-05,9.270907516e-06,9.907943728e-06,-8.471144609e-06,8.835410106e-06,-2.073729653e-06,4.096154286e-06,3.511223892e-07,3.417540518e-06,6.250156287e-07,8.010490566e-06,1.490699943e-06,4.962910842e-06,4.930898628e-07,6.248029381e-06,-1.052298269e-04,-9.302471147e-06
0.365,-1.628285129e-05,-9.057819453e-06,-7.668677756e-07,3.157457498e-06,-1.147768993e-07,8.234663174e-06,3.024360177e-06,9.438808629e-06,1.061559603e-05,5.961493097e-06,1.280678766e-05,7.512027996e-06,1.348578444e-05,1.430552379e-05,1.248842687e-05,1.370358976e-05,-5.536795146e-06,1.630706975e-05,-2.354169930e-06,3.891890908e-06,2.288142185e-06,4.604713680e-06,2.484054488e-06,9.520932810e-06,3.521930177e-06,7.340005262e-06,2.513108243e-06,9.045180337e-06,-5.249752374e-06,-3.176141662e-05
0.37,-1.044915833e-05,-2.025426193e-06,-8.904719175e-07,1.513545432e-06,-7.362751791e-07,7.860388686e-06,-3.082983400e-06,8.823835723e-06,1.097145591e-05,5.132951783e-06,1.357437617e-05,7.221599677e-06,1.416648280e-05,1.623868237e-05,1.584983711e-05,1.645524210e-05,-2.097011318e-06,1.117969580e-05,-7.772035835e-07,5.218197209e-06,6.020121512e-06,7.267232598e-06,4.572542629e-06,1.171448832e-05,6.700823566e-06,1.001174330e-05,6.633020220e-06,1.212262619e-05,-2.873588050e-05,-3.242645354e-05
0.375,-1.823935534e-06,-9.688178441e-07,-2.062112736e-06,-2.373141671e-06,-2.146470297e-06,5.852681022e-06,-9.150674355e-06,5.427888335e-06,1.064147390e-05,3.755042675e-06,1.308976038e-05,6.114395760e-06,1.317954575e-05,1.648517453e-05,1.779191385e-05,1.709260566e-05,5.779244536e-07,-6.182727395e-07,1.445263980e-06,6.872424294e-06,9.171865574e-06,9.821097496e-06,6.809675936e-06,1.366089866e-05,9.480388863e-06,1.173035601e-05,1.006013974e-05,1.399185735e-05,-1.197365680e-04,1.966624042e-05
0.38,3.987876743e-06,-5.918763682e-06,-3.808453244e-06,-6.453954257e-06,-4.376391648e-06,2.683590245e-06,-9.050989973e-06,4.910710761e-07,9.262263023e-06,2.186108305e-06,1.115556003e-05,5.081596100e-06,1.118732331e-05,1.539219530e-05,1.726022942e-05,1.610138607e-05,1.046933573e-06,-7.502588332e-06,1.774167577e-06,6.766303650e-06,9.440109660e-06,1.029913888e-05,1.003800545e-05,1.414077118e-05,1.045378019e-05,1.175852691e-05,1.050428459e-05,1.382509660e-05,-1.008071590e-04,8.772182608e-06
0.385,3.818494628e-06,-1.047198193e-05,-4.868850415e-06,-8.865301846e-06,-6.346633385e-06,-2.759573869e-07,-4.575600400e-06,-3.086982467e-06,7.387194257e-06,8.971609477e-07,8.898103448e-06,3.896768675e-06,9.276285339e-06,1.411435848e-05,1.484202989e-05,1.476378651e-05,-1.855900646e-06,-4.116274099e-06,-5.005820009e-07,4.697602182e-06,7.358692518e-06,8.784281947e-06,1.416286173e-05,1.324104966e-05,1.001078158e-05,1.102441996e-05,9.160011162e-06,1.253814317e-05,2.169393001e-06,-3.522891182e-05
0.39,-5.252380486e-07,-8.738681012e-06,-4.258688254e-06,-8.759132532e-06,-6.037719068e-06,-1.278301318e-06,-2.055564505e-06,-2.758049381e-06,6.731471179e-06,6.786374625e-07,8.316145931e-06,2.269280799e-06,8.484548940e-06,1.384251201e-05,1.260122763e-05,1.391540362e-05,-6.978976397e-06,4.414367510e-06,-3.036946764e-06,3.026941126e-06,6.136510226e-06,7.681234428e-06,1.716519924e-05,1.272168467e-05,1.003131589e-05,1.150344516e-05,9.650367816e-06,1.207330684e-05,-1.839967344e-05,-1.361408909e-05
0.395,-4.406673139e-06,-1.594295615e-06,-2.280039582e-06,-6.368856018e-06,-2.401811040e-06,5.510466808e-07,-4.268493855e-06,1.536060218e-06,8.614635517e-06,2.186674137e-06,1.041753295e-05,1.043167762e-06,9.285493136e-06,1.485526130e-05,1.230114031e-05,1.344366458e-05,-1.016668124e-05,9.388307948e-06,-2.970643717e-06,4.058669461e-06,8.402409794e-06,9.045891223e-06,1.669456238e-05,1.413969063e-05,1.165626043e-05,1.399047546e-05,1.358009570e-05,1.330723363e-05,-1.168666169e-04,1.487271619e-05
0.4,-5.206256217e-06,4.292481070e-06,-3.084311175e-07,-2.966864010e-06,2.805294352e-06,4.139350643e-06,-7.407072846e-06,7.002935072e-06,1.208018259e-05,4.944087931e-06,1.377476799e-05,1.560265070e-06,1.116153720e-05,1.614775440e-05,1.367988918e-05,1.283146612e-05,-7.666620992e-06,7.745767673e-06,-3.135534380e-07,7.100221159e-06,1.316805476e-05,1.191352329e-05,1.257035862e-05,1.667812797e-05,1.366693456e-05,1.673957164e-05,1.793864177e-05,1.492991309e-05,-1.035557006e-04,1.695339957e-05
0.405,-4.856809867e-06,3.211623232e-06,4.365906423e-07,-4.800364670e-07,5.905526999e-06,7.002838290e-06,-6.300489103e-06,1.012791792e-05,1.424619064e-05,7.168588642e-06,1.552789550e-05,3.883781904e-06,1.284561072e-05,1.621907232e-05,1.478737105e-05,1.198334384e-05,-8.799739611e-07,3.554692466e-06,2.040347228e-06,8.963265058e-06,1.639183219e-05,1.304496491e-05,7.244457824e-06,1.757773836e-05,1.362611386e-05,1.696556626e-05,1.798894127e-05,1.484959655e-05,-7.407025729e-06,-1.086078378e-05
0.41,-7.216552971e-06,-4.285141525e-06,-2.035104368e-07,-1.912635561e-07,4.809364944e-06,7.417154776e-06,-1.239440290e-06,9.678903233e-06,1.310432651e-05,7.260476863e-06,1.427292487e-05,6.353262995e-06,1.338818277e-05,1.454399230e-05,1.420793392e-05,1.142894609e-05,3.647632579e-06,1.809862285e-06,1.875912656e-06,7.642523831e-06,1.485617164e-05,1.061261608e-05,3.672622435e-06,1.519024461e-05,1.073682821e-05,1.392162603e-05,1.276375526e-05,1.271619827e-05,-2.740519044e-05,-1.055745287e-05
0.415,-1.303425784e-05,-1.248941131e-05,-1.612553055e-06,-1.418119493e-06,1.487391273e-06,6.092488644e-06,1.853726113e-06,7.712893890e-06,9.763979462e-06,5.621134783e-06,1.169983755e-05,7.305229177e-06,1.307356700e-05,1.226549279e-05,1.266019264e-05,1.175342600e-05,4.125658413e-07,2.981014030e-06,3.405707926e-07,4.798743809e-06,9.427627568e-06,6.556287272e-06,2.964482188e-06,1.119060364e-05,7.083867248e-06,1.002534946e-05,6.683576501e-06,1.055579362e-05,-1.267056394e-04,2.095196582e-05
0.42,-1.821653615e-05,-1.598956088e-05,-3.289372402e-06,-2.091984972e-06,8.539821456e-08,5.251214578e-06,-1.843911001e-06,7.333610140e-06,7.322475139e-06,4.499131383e-06,1.079979260e-05,6.883068567e-06,1.299524323e-05,1.115017877e-05,1.201366345e-05,1.289566375e-05,-9.046977147e-06,4.092659630e-06,2.320933970e-07,3.824564042e-06,4.222158435e-06,4.579596872e-06,4.118520294e-06,9.030809450e-06,5.576791761e-06,8.439487063e-06,4.995128260e-06,1.053448645e-05,-1.107842779e-04,2.453979115e-05
0.425,-1.768387755e-05,-1.357627188e-05,-5.125582209e-06,-1.302819792e-06,2.233987349e-06,5.880749673e-06,-1.017924745e-05,9.326658495e-06,7.444127477e-06,5.567510320e-06,1.240237370e-05,6.619826705e-06,1.358385752e-05,1.172990227e-05,1.285738457e-05,1.405252737e-05,-1.736099353e-05,3.312494190e-06,2.013642762e-06,5.666559311e-06,2.518023266e-06,5.956349431e-06,5.560787526e-06,1.014866308e-05,6.824185676e-06,9.705638194e-06,8.088054355e-06,1.235783031e-05,-1.341306730e-05,-2.792616634e-05
0.43,-1.079937866e-05,-7.553995046e-06,-6.816055141e-06,-8.936289420e-07,4.950263019e-06,6.405922509e-06,-1.569867334e-05,1.129626171e-05,8.673404189e-06,7.842338191e-06,1.409749327e-05,7.333630558e-06,1.389236964e-05,1.271665918e-05,1.366815902e-05,1.432729652e-05,-1.861588117e-05,1.593523058e-06,2.857221609e-06,7.580558022e-06,3.801768840e-06,8.173977599e-06,6.487023509e-06,1.240889088e-05,8.610656968e-06,1.137529935e-05,1.133221161e-05,1.348018106e-05,-1.967348044e-05,-3.104409705e-05
0.435,-2.391818966e-06,-8.016833180e-07,-7.451219164e-06,-3.519208249e-06,4.038769683e-06,4.646645397e-06,-1.308459733e-05,1.040679778e-05,8.541291512e-06,8.574803274e-06,1.305133718e-05,8.077022322e-06,1.276079730e-05,1.252349670e-05,1.275798747e-05,1.354337592e-05,-1.355119132e-05,9.706468425e-08,2.968671353e-07,6.549786150e-06,5.050685961e-06,8.139516455e-06,6.886185494e-06,1.275486471e-05,8.634253875e-06,1.111314502e-05,1.064398137e-05,1.205509004e-05,-1.189561198e-04,1.862358148e-05
0.44,1.765883041e-06,4.487177757e-06,-6.246516010e-06,-8.887540522e-06,-7.075079569e-07,8.758105297e-07,-4.383437545e-06,6.733769146e-06,6.815686472e-06,6.365903357e-06,9.523456013e-06,7.483822590e-06,1.056944976e-05,1.121634487e-05,1.063800529e-05,1.244635674e-05,-7.421572111e-06,-1.985381906e-06,-4.071196664e-06,3.212246332e-06,4.552227813e-06,6.036173481e-06,6.914873825e-06,1.088821029e-05,7.211457408e-06,9.508755991e-06,7.167319526e-06,9.189559207e-06,-1.094038423e-04,2.385768368e-05
0.445,5.226563403e-08,5.903640858e-06,-3.834063016e-06,-1.294783657e-05,-4.885529134e-06,-1.935464836e-06,3.252952691e-06,3.321755060e-06,5.735178112e-06,2.905675056e-06,6.784700960e-06,5.679511677e-06,9.208737310e-06,1.050156633e-05,9.699443151e-06,1.204563485e-05,-4.173400516e-06,-5.781517620e-06,-5.922691570e-06,1.264313700e-06,3.737554835e-06,4.999599881e-06,6.657194768e-06,9.434551556e-06,6.664760697e-06,9.135087568e-06,5.572942282e-06,7.759924674e-06,-8.901126503e-06,-1.528169384e-06
0.45,-4.574928549e-06,8.248496282e-07,-2.415406230e-06,-1.187773562e-05,-4.602127350e-06,-1.396051186e-06,4.535271502e-06,2.757105616e-06,6.892703060e-06,1.154527980e-06,7.327264082e-06,4.195263212e-06,9.928082975e-06,1.160619107e-05,1.136732929e-05,1.268095786e-05,-3.994069213e-06,-9.742145077e-06,-3.396324853e-06,2.859267498e-06,4.987163293e-06,6.961553989e-06,6.288136009e-06,1.041848109e-05,8.200085447e-06,1.105762607e-05,8.229607237e-06,9.134467344e-06,-2.506169492e-05,-2.042567747e-05
0.455,-8.445825871e-06,-1.082042150e-05,-3.985465311e-06,-6.650794235e-06,-1.294243577e-06,1.298258003e-06,4.265639366e-07,4.233173737e-06,8.841569858e-06,2.028417575e-06,9.842874567e-06,4.027331439e-06,1.159267855e-05,1.357782267e-05,1.418321417e-05,1.373218972e-05,-5.605406845e-06,-1.000624540e-05,2.814998145e-07,5.700830555e-06,8.233373243e-06,9.903695783e-06,6.033083703e-06,1.255583316e-05,1.021673376e-05,1.325156697e-05,1.239739519e-05,1.168000383e-05,-1.249427963e-04,-1.881848466e-06
0.46,-1.041769537e-05,-2.379604945e-05,-8.079530295e-06,-2.475552615e-06,-1.389377323e-07,2.484484623e-06,-3.942038605e-06,4.631752933e-06,8.714838919e-06,3.550571838e-06,1.070093758e-05,4.489734655e-06,1.176593291e-05,1.421700182e-05,1.533443526e-05,1.428385348e-05,-8.456489423e-06,-4.414400243e-06,3.765526781e-07,5.656341441e-06,1.059036299e-05,1.010434248e-05,5.846925279e-06,1.285457569e-05,1.019849146e-05,1.302374888e-05,1.369017827e-05,1.276013897e-05,-1.043459300e-04,5.063289803e-06
0.465,-1.129712467e-05,-2.948082132e-05,-1.153296950e-05,-3.176584553e-06,-3.666959836e-06,2.607051530e-07,-4.789891862e-06,2.379212548e-06,5.968180065e-06,3.484146761e-06,8.264545150e-06,4.417913054e-06,9.645417009e-06,1.267717625e-05,1.391308504e-05,1.404016927e-05,-1.164621378e-05,4.536315707e-06,-3.660695396e-06,1.858834823e-06,9.500312968e-06,6.677806168e-06,5.338999757e-06,1.047917524e-05,7.805995115e-06,1.041982265e-05,1.131541693e-05,1.170558406e-05,-5.835404825e-06,-2.916121735e-05
0.47,-1.144043410e-05,-2.272287447e-05,-1.104461586e-05,-6.934910625e-06,-8.362246070e-06,-3.154662993e-06,-2.682173957e-06,-5.584277390e-07,3.399409441e-06,2.178881924e-06,4.870878050e-06,4.019273452e-06,7.303266430e-06,1.056555661e-05,1.191433635e-05,1.347625132e-05,-1.257262369e-05,1.145296496e-05,-7.423668334e-06,-2.022107951e-06,5.599674961e-06,2.715817504e-06,4.168251060e-06,7.859750305e-06,5.243962194e-06,8.226727170e-06,8.620929041e-06,1.017297955e-05,-2.199764035e-05,-4.248973656e-05
0.475,-1.027796704e-05,-7.443724735e-06,-6.365044651e-06,-8.565584888e-06,-8.654039037e-06,-3.883357089e-06,-6.149422010e-07,-9.763629019e-07,3.871029764e-06,2.078677404e-06,4.067178196e-06,4.677393369e-06,7.433752806e-06,1.005609821e-05,1.168154443e-05,1.307129225e-05,-9.145360551e-06,1.258206697e-05,-6.842184243e-06,-2.075028532e-06,1.932667325e-06,1.539496795e-06,2.460911847e-06,7.539875895e-06,4.427569996e-06,8.444600391e-06,8.536071533e-06,9.685117154e-06,-1.138125337e-04,5.192002914e-06
0.48,-8.006975472e-06,5.686931402e-06,-9.016363627e-07,-5.727902230e-06,-3.612289160e-06,-8.692947371e-07,-2.397457034e-07,1.738743577e-06,6.667849298e-06,4.478635596e-06,6.417460618e-06,6.778906108e-06,1.006972281e-05,1.120050219e-05,1.293077597e-05,1.258448834e-05,-3.340709982e-06,8.218072065e-06,-3.122349731e-06,1.147580067e-06,6.406536086e-07,2.721492004e-06,7.991327866e-07,8.803506247e-06,4.563592151e-06,9.664414839e-06,9.832987367e-06,9.658188691e-06,-9.999837840e-05,1.511661955e-05
0.485,-6.272655277e-06,8.586392984e-06,1.126770535e-06,-1.653535833e-06,1.839518959e-06,2.865854023e-06,-5.909222453e-07,4.846406641e-06,8.087910631e-06,7.567506450e-06,8.868723205e-06,8.523431331e-06,1.223335953e-05,1.173448771e-05,1.306857067e-05,1.133114109e-05,-2.877604643e-07,1.127976760e-06,-1.245218795e-06,3.244447160e-06,1.142631552e-06,2.824918504e-06,-1.153822297e-07,8.497499019e-06,3.252651646e-06,8.765282043e-06,8.863064824e-06,8.434693349e-06,-1.294430720e-06,-1.380667820e-05
0.49,-6.233162792e-06,3.062809074e-06,-1.639727108e-06,-1.225189218e-06,2.690781273e-06,3.568819327e-06,-6.583899464e-08,5.375459106e-06,5.676427350e-06,8.242706032e-06,8.292224447e-06,7.675888712e-06,1.112268216e-05,9.700650281e-06,1.042913993e-05,9.177213458e-06,-2.507342844e-06,-6.226066409e-06,-3.890012474e-06,1.125386836e-06,1.618107258e-06,-1.574698306e-07,1.848448331e-07,5.084282604e-06,-2.802823269e-07,4.899328070e-06,4.391325864e-06,5.832575846e-06,-7.916231013e-06,-1.250021831e-05
0.495,-6.642206455e-06,-1.892717951e-06,-6.755139584e-06,-5.305438344e-06,-5.207164666e-07,6.712317659e-07,1.407066504e-06,3.285804203e-06,9.802634401e-07,5.571132098e-06,4.859309547e-06,4.381353783e-06,7.177788745e-06,5.753746679e-06,6.402666991e-06,6.979812761e-06,-6.510210870e-06,-1.244570685e-05,-8.292684989e-06,-3.553968111e-06,1.382657890e-06,-4.301533173e-06,1.586648097e-06,7.417671678e-07,-3.967374568e-06,7.522207734e-07,-6.584104631e-07,3.706269774e-06,-1.080242511e-04,2.914565306e-05
0.5,-5.157377360e-06,-3.737483493e-07,-1.052062736e-05,-1.006269711e-05,-3.007282820e-06,-3.120092522e-06,2.714970537e-06,1.018918787e-06,-2.418853985e-06,1.811303385e-06,1.409111591e-06,1.464879732e-06,3.486789235e-06,2.402489044e-06,3.832609570e-06,5.797866065e-06,-7.167704825e-06,-1.623011921e-05,-9.797222445e-06,-6.645858810e-06,1.020508026e-06,-6.240891778e-06,3.094652640e-06,-1.212250263e-06,-5.280501570e-06,-5.695373194e-07,-2.657835235e-06,3.635919746e-06,-1.006062840e-04,1.795829451e-05
0.505,-1.681690796e-06,3.808533099e-06,-1.125135803e-05,-1.161026119e-05,-1.969622850e-06,-5.127750671e-06,3.498416428e-06,3.922062425e-07,-2.957975458e-06,-6.904659914e-08,2.590113410e-08,1.527498440e-06,2.387856350e-06,1.218107432e-06,3.752774151e-06,5.763495264e-06,-4.904394511e-06,-1.623828368e-05,-7.491949735e-06,-6.359316454e-06,6.127523290e-07,-5.300267658e-06,3.087187596e-06,-2.820101396e-07,-4.203288204e-06,8.394928884e-07,-1.462747079e-06,4.737524289e-06,5.976160327e-07,-1.693081664e-05
0.51,8.306991772e-07,1.890807810e-06,-9.977194308e-06,-9.936616313e-06,2.759178980e-07,-5.158198575e-06,4.641435118e-06,8.715695954e-07,-2.216768142e-06,6.790236658e-07,1.999449376e-07,4.141486303e-06,3.361140381e-06,1.467920255e-06,4.553500553e-06,6.046710512e-06,-5.714387903e-06,-1.250865035e-05,-4.913831204e-06,-4.703852871e-06,-8.661206104e-07,-3.959646562e-06,5.414042100e-07,9.216048489e-07,-3.033321436e-06,2.073228726e-06,-1.328907026e-07,4.619578723e-06,-1.682097282e-05,-9.703950309e-06
0.515,-1.852627543e-07,-8.689618486e-06,-8.338131204e-06,-7.697457108e-06,5.686256015e-09,-4.564469328e-06,6.389575569e-06,1.070094841e-06,-2.099710451e-06,2.464581907e-06,4.604928539e-07,6.452056183e-06,4.438501398e-06,1.683211036e-06,4.473040803e-06,6.019711394e-06,-1.267528596e-05,-7.315478296e-06,-5.230058543e-06,-4.181953482e-06,-3.742888543e-06,-4.238439119e-06,-3.573940459e-06,3.509366088e-07,-3.321806797e-06,1.266550091e-06,-7.778003319e-07,2.506655105e-06,-1.191312209e-04,1.053016144e-05
0.52,-3.367843236e-06,-1.962841003e-05,-6.501909510e-06,-6.316287660e-06,-2.593360803e-06,-3.894616956e-06,6.763042185e-06,1.005060771e-06,-2.115306251e-06,3.643445235e-06,7.903170617e-07,6.399146782e-06,4.914569996e-06,1.893617235e-06,4.041897689e-06,6.123267528e-06,-1.978681000e-05,-3.687947696e-06,-7.230509182e-06,-4.397082487e-06,-6.036050630e-06,-4.901138124e-06,-6.463287531e-06,-7.121658411e-07,-3.910280322e-06,-6.392547926e-09,-1.925513245e-06,5.899135073e-07,-1.032566933e-04,1.078080153e-05
0.525,-4.794166441e-06,-1.972954544e-05,-3.550459350e-06,-4.819326782e-06,-3.644402434e-06,-2.470959049e-06,3.142458051e-06,1.910383244e-06,-3.630489053e-07,4.109704729e-06,2.430937094e-06,4.683543281e-06,5.794233033e-06,3.508157281e-06,5.255213620e-06,7.204064329e-06,-1.770792778e-05,-2.877269270e-06,-7.143220247e-06,-2.974775175e-06,-4.961114814e-06,-3.212324830e-06,-5.790887071e-06,5.520171501e-07,-2.578396102e-06,1.172285924e-06,-6.428947365e-07,1.661231663e-06,-5.352490787e-06,-2.827440952e-05
0.53,-3.150671940e-06,-7.261189454e-06,4.464264298e-07,-2.433514622e-06,-9.921295476e-07,-8.969233618e-08,-4.051775790e-06,4.009914321e-06,3.301022780e-06,4.529824967e-06,5.516418277e-06,3.356480672e-06,7.696292864e-06,7.018850944e-06,8.585245399e-06,9.081683328e-06,-5.903296849e-06,-3.574640519e-06,-3.685564530e-06,6.935404741e-07,-3.600701442e-07,1.086957039e-06,-2.110439272e-06,4.486395202e-06,8.507656149e-07,5.155425504e-06,3.475083535e-06,5.703565522e-06,-2.218489797e-05,-1.416006181e-05
0.535,-2.121326209e-06,7.207126057e-06,3.584423198e-06,-6.437705143e-07,2.521626971e-06,2.011147764e-06,-1.005593055e-05,5.583278454e-06,6.406275611e-06,4.842581468e-06,8.052425491e-06,3.167931304e-06,9.375400216e-06,1.066278386e-05,1.183246323e-05,1.029703982e-05,4.270376141e-06,-3.607420662e-06,2.408678805e-07,4.063969908e-06,4.304407167e-06,4.901692173e-06,1.368405287e-06,8.033800342e-06,3.988739621e-06,8.984092805e-06,7.553244530e-06,9.576240798e-06,-1.202938721e-04,3.029838170e-05
0.54,-6.179054634e-06,1.118216840e-05,3.869576680e-06,-1.431179806e-06,2.486655067e-06,2.565120396e-06,-9.433189484e-06,4.901388083e-06,6.691449867e-06,4.341966194e-06,7.967757777e-06,3.109062618e-06,9.086854459e-06,1.202607722e-05,1.248689880e-05,9.653854691e-06,1.436700237e-06,-1.994843177e-06,1.255970495e-06,4.381464222e-06,5.314464005e-06,5.341605071e-06,1.914445489e-06,8.282513275e-06,4.681923230e-06,9.779265302e-06,8.770823640e-06,1.031527028e-05,-1.095467771e-04,2.177332940e-05
0.545,-1.429533591e-05,2.729087910e-06,1.590547672e-06,-4.099015107e-06,-1.267406746e-06,2.154510738e-06,-1.611467841e-06,2.571675471e-06,4.995006341e-06,3.102752525e-06,5.741794531e-06,2.423914025e-06,7.040888532e-06,1.076859345e-05,1.072028276e-05,7.792686043e-06,-1.190557369e-05,7.507289618e-07,-3.172746025e-07,2.174241578e-06,2.882139098e-06,3.274129082e-06,1.223532640e-07,6.073002753e-06,3.630265876e-06,8.071376635e-06,7.535552078e-06,8.253904263e-06,-7.859884538e-06,-3.582395132e-05
0.55,-1.950399754e-05,-8.470049430e-06,-6.466346275e-07,-5.390039912e-06,-4.139415399e-06,2.758084144e-06,7.750617344e-06,1.040001363e-06,4.354072512e-06,2.433587807e-06,4.105886254e-06,2.042875137e-06,5.536760938e-06,9.083712848e-06,9.217514096e-06,6.701303030e-06,-2.068385816e-05,3.701277107e-06,-1.126912104e-06,7.520557085e-07,1.067197591e-06,2.325767994e-06,-8.005873480e-07,5.072453638e-06,3.522623352e-06,7.003611628e-06,6.674759687e-06,6.405371609e-06,-2.003515300e-05,-5.459231592e-05
0.555,-1.577935827e-05,-1.216147231e-05,-5.379735172e-07,-3.249733260e-06,-2.445529263e-06,5.254254699e-06,1.170427942e-05,1.650654666e-06,6.298109499e-06,3.366837249e-06,4.941446590e-06,3.303349395e-06,6.314356643e-06,9.223501229e-06,9.980734865e-06,7.476814120e-06,-1.367732773e-05,6.152355849e-06,7.420461353e-07,2.253892608e-06,3.132575044e-06,4.480264114e-06,1.263758866e-06,7.373986209e-06,5.723359106e-06,8.486608590e-06,7.889179814e-06,6.986046567e-06,-1.166737848e-04,9.228896391e-06
0.56,-4.773641125e-06,-8.015161346e-06,1.508137874e-06,4.784855187e-07,1.828658340e-06,8.017815669e-06,8.491897904e-06,2.968161569e-06,8.934303822e-06,5.076669498e-06,7.093062957e-06,5.683906786e-06,8.374156952e-06,1.100037447e-05,1.200955572e-05,8.947324249e-06,3.564393966e-06,7.262441183e-06,3.327687805e-06,5.120068589e-06,7.568965023e-06,7.645613136e-06,4.737975390e-06,1.096997151e-05,8.528026892e-06,1.100815575e-05,9.880405130e-06,9.164588629e-06,-1.038831300e-04,1.290549738e-05
0.565,5.371243513e-06,-4.287916650e-06,2.908301066e-06,1.978735216e-06,3.318680569e-06,8.489315654e-06,2.776882917e-06,2.566720494e-06,9.158044848e-06,5.510516377e-06,7.750001109e-06,6.844588479e-06,9.084400217e-06,1.215829121e-05,1.262736483e-05,8.941587683e-06,1.455716619e-05,5.883852225e-06,3.339073627e-06,5.986027547e-06,9.458889062e-06,8.065096022e-06,5.862656103e-06,1.205492711e-05,9.014330405e-06,1.155350824e-05,1.014205207e-05,1.038715840e-05,-6.105543887e-06,-2.251292827e-05
0.57,7.908062780e-06,-7.293927571e-06,1.780963424e-06,-3.155842132e-07,-1.740934410e-07,5.885633303e-06,3.895564386e-07,7.398559408e-08,6.203250441e-06,3.729539311e-06,5.699726306e-06,5.321032142e-06,7.297741349e-06,1.102137153e-05,1.071029823e-05,6.847620032e-06,9.777005876e-06,1.413772559e-06,2.220432348e-07,3.532414566e-06,5.720172967e-06,4.560853523e-06,2.773012763e-06,9.241691218e-06,6.210017911e-06,9.072843757e-06,7.891936033e-06,9.352971900e-06,-1.752864657e-05,-2.539897040e-05
0.575,3.302168731e-06,-1.428889954e-05,-1.082459156e-06,-4.323977022e-06,-5.021311926e-06,1.900417743e-06,2.421506831e-06,-2.338624323e-06,2.309386053e-06,1.118677602e-06,2.598522911e-06,2.565419330e-06,4.680776957e-06,8.256272419e-06,7.887209039e-06,4.445492446e-06,-4.061029828e-06,-5.261265837e-06,-3.375508041e-06,-2.879415028e-07,-1.627692495e-06,-3.360183446e-07,-2.290268946e-06,4.771444313e-06,1.981774999e-06,5.406288916e-06,4.686616520e-06,7.128190829e-06,-1.173497052e-04,7.134426757e-06
0.58,-2.886808715e-06,-1.732062335e-05,-3.264094203e-06,-7.040239244e-06,-6.173832313e-06,-1.131217027e-06,4.998458108e-06,-2.540058050e-06,8.303793130e-08,-9.628216620e-08,9.839039138e-07,1.564068896e-06,3.719709686e-06,5.931714925e-06,6.498418471e-06,3.991030664e-06,-1.319259193e-05,-1.205217235e-05,-4.958443040e-06,-2.688956080e-06,-7.570176926e-06,-3.273190024e-06,-4.985170219e-06,1.780063552e-06,-1.005041793e-06,3.030363221e-06,2.530413099e-06,5.545243169e-06,-9.858884202e-05,1.978289972e-05
0.585,-6.504350194e-06,-1.248743672e-05,-3.408400528e-06,-7.549140820e-06,-3.024091484e-06,-2.181102450e-06,4.430404409e-06,-7.729286684e-07,3.085975134e-08,7.410425881e-07,1.625773447e-06,3.485146842e-06,4.951885866e-06,5.330278878e-06,7.066547871e-06,5.804303351e-06,-1.237926856e-05,-1.692279098e-05,-4.822968649e-06,-2.863996086e-06,-8.879369503e-06,-3.275209858e-06,-2.922176307e-06,1.266686574e-06,-1.644370036e-06,2.697228139e-06,2.157654331e-06,5.261238789e-06,6.082068745e-06,-1.940518064e-05
0.59,-7.815927271e-06,-3.644127040e-06,-2.455207732e-06,-6.818730213e-06,3.728249952e-07,-1.604278051e-06,1.444523550e-06,1.040905325e-06,9.199411776e-07,2.252646670e-06,3.210140416e-06,6.363626929e-06,6.711452792e-06,6.067336446e-06,8.274094458e-06,8.152445017e-06,-8.543774093e-06,-1.867485169e-05,-4.858094994e-06,-2.058492796e-06,-6.388188944e-06,-1.870425571e-06,2.289592507e-06,2.043068898e-06,-6.869219915e-07,3.518556587e-06,3.214376390e-06,5.726167136e-06,-1.870343059e-05,-1.968460935e-05
0.595,-8.675030884e-06,2.687542019e-06,-2.240574369e-06,-5.533655754e-06,4.787695090e-07,-1.076179903e-07,-2.362756520e-07,1.764437842e-06,1.711672963e-06,2.874985733e-06,4.189874140e-06,7.388755102e-06,7.338104265e-06,7.036534820e-06,8.996097042e-06,9.363353817e-06,-1.006840362e-05,-1.681957114e-05,-5.639831897e-06,-1.597438736e-06,-3.095669637e-06,-8.799007198e-07,6.641320407e-06,2.805311971e-06,5.910646983e-07,4.596242746e-06,5.231463378e-06,6.497536985e-06,-1.207622516e-04,1.675793785e-05
0.6,-9.043969175e-06,4.024850004e-06,-3.381479304e-06,-3.607228401e-06,-1.910536304e-06,1.554335693e-06,1.254567789e-06,1.921908309e-06,2.220735387e-06,2.553313067e-06,4.207273518e-06,5.968358699e-06,6.844463980e-06,7.534834192e-06,9.473795834e-06,9.461025867e-06,-1.652881323e-05,-1.164561837e-05,-5.927419075e-06,-1.754113550e-06,-1.129043342e-06,-9.457458669e-07,6.999248238e-06,3.247919308e-06,1.367252092e-06,5.699818568e-06,7.635757909e-06,7.753526919e-06,-1.082977452e-04,2.109901985e-05
0.605,-7.940800409e-06,2.479090777e-06,-4.944971158e-06,-1.881744973e-06,-3.610634306e-06,2.125395909e-06,3.749919856e-06,2.110140771e-06,2.112742008e-06,2.252285362e-06,3.639859361e-06,3.934040180e-06,6.149719731e-06,7.296067158e-06,1.026432042e-05,9.453663037e-06,-2.109598388e-05,-5.072547184e-06,-5.055180068e-06,-2.488788276e-06,-9.310250804e-07,-2.007916154e-06,3.079708237e-06,3.264709910e-06,1.165231415e-06,6.465360420e-06,9.109331897e-06,9.370390240e-06,-9.694777368e-06,-2.928787017e-05
0.61,-6.870838909e-06,5.844180062e-08,-6.004050163e-06,-2.745505614e-06,-3.531730684e-06,2.336456095e-07,3.964404702e-06,1.578277511e-06,4.652994695e-07,2.249879047e-06,2.533737433e-06,2.949481129e-06,5.388538348e-06,6.062556292e-06,1.078977180e-05,9.539905302e-06,-2.057592480e-05,-8.249817573e-07,-4.654439831e-06,-4.295894501e-06,-2.496370761e-06,-4.113615698e-06,-2.988167685e-06,2.205397239e-06,-3.355575550e-07,5.937758272e-06,8.018018080e-06,1.018715092e-05,-2.627066681e-05,-4.335120612e-05
0.615,-9.767566267e-06,-4.137582258e-06,-6.886992428e-06,-7.694515247e-06,-3.635441600e-06,-4.011386752e-06,1.550052637e-06,-7.001003234e-07,-2.912749821e-06,1.719450176e-06,7.144114524e-07,2.608125548e-06,3.866205614e-06,3.853945934e-06,9.783459019e-06,8.822903801e-06,-1.901850956e-05,-2.240196891e-06,-7.061174975e-06,-7.564494257e-06,-6.062721602e-06,-7.052714844e-06,-8.461054690e-06,-2.612661444e-07,-2.822205541e-06,3.631145421e-06,4.141743381e-06,8.912927940e-06,-1.146076535e-04,9.150964965e-06
0.62,-1.809378251e-05,-1.128570838e-05,-8.500286582e-06,-1.459978132e-05,-5.498629874e-06,-8.204275901e-06,-7.861118962e-07,-3.838099748e-06,-6.249246668e-06,2.000543245e-07,-1.216304575e-06,1.547575441e-06,1.679426650e-06,1.639069549e-06,7.177180109e-06,6.946108633e-06,-2.073143110e-05,-8.917716030e-06,-1.224620167e-05,-1.137051664e-05,-1.114574829e-05,-9.635358778e-06,-1.156298638e-05,-2.947146088e-06,-4.976821976e-06,7.375869717e-07,-3.539210313e-07,5.806020058e-06,-1.035141472e-04,1.736914773e-05
0.625,-2.701128039e-05,-1.905250253e-05,-1.067272253e-05,-1.876530262e-05,-7.564016402e-06,-9.374896894e-06,-9.364264244e-07,-5.062426003e-06,-6.954628247e-06,-1.178969756e-06,-1.809661682e-06,-1.641151914e-07,4.848913023e-07,1.044751401e-06,4.817757523e-06,5.307241201e-06,-2.310506929e-05,-1.599444014e-05,-1.714680705e-05,-1.368277015e-05,-1.561808835e-05,-1.023538859e-05,-1.202102599e-05,-3.772461196e-06,-5.241126374e-06,-5.271684987e-07,-2.407049363e-06,2.956582689e-06,-1.945368622e-06,-2.845133867e-05
0.63,-2.849291639e-05,-2.251688142e-05,-1.177658605e-05,-1.738363612e-05,-7.019068748e-06,-6.934843971e-06,9.214975988e-08,-2.615727198e-06,-4.337507772e-06,-6.999714353e-07,-2.063946903e-07,-7.468218902e-07,1.906859752e-06,2.846140420e-06,4.775997486e-06,5.880026821e-06,-1.951581500e-05,-1.796156318e-05,-1.835517007e-05,-1.309494137e-05,-1.672585875e-05,-8.344243948e-06,-1.057037668e-05,-1.935704899e-06,-3.222352742e-06,8.916681050e-07,-8.140121339e-07,2.520223047e-06,-1.483285322e-05,-7.015347086e-06
0.635,-1.920023800e-05,-1.928236070e-05,-1.033068382e-05,-1.241028864e-05,-3.838221037e-06,-3.526224982e-06,-4.236809532e-08,1.761234256e-06,-6.238688719e-07,1.673539295e-06,2.585774564e-06,9.637514806e-07,5.330830205e-06,5.854679996e-06,7.110899743e-06,8.805424802e-06,-8.640141496e-06,-1.383657521e-05,-1.516016453e-05,-1.010292693e-05,-1.339940125e-05,-5.190081171e-06,-8.010194413e-06,1.012732615e-06,-1.453698379e-07,3.689777242e-06,2.699781313e-06,4.689682139e-06,-1.258217023e-04,3.553976785e-05
0.64,-4.636214173e-06,-1.252203998e-05,-6.802672876e-06,-8.424039006e-06,-1.477974265e-06,-2.528378777e-06,-1.569728658e-06,4.040933407e-06,1.219414039e-06,3.640486156e-06,4.343370953e-06,3.629826581e-06,7.972247757e-06,7.744219995e-06,9.732595755e-06,1.175488377e-05,2.300157220e-06,-8.162890104e-06,-9.817447469e-06,-6.511298717e-06,-7.387374424e-06,-2.536554731e-06,-4.677263585e-06,2.685188701e-06,2.247931137e-06,5.501674621e-06,5.272994581e-06,7.537569837e-06,-1.185977043e-04,1.707368191e-05
0.645,5.428727800e-06,-8.000069726e-06,-3.447401225e-06,-7.972167172e-06,-2.993629864e-06,-4.818145410e-06,-2.297721352e-06,1.833107945e-06,4.393536355e-07,2.689876269e-06,3.686347640e-06,4.592168205e-06,7.497435363e-06,7.151839563e-06,1.050327530e-05,1.211293664e-05,5.026889606e-06,-6.317613995e-06,-5.278092259e-06,-3.850401283e-06,-1.901600903e-06,-1.117887908e-06,-8.427736195e-07,2.228908077e-06,3.128110260e-06,5.225058527e-06,5.563703363e-06,8.796230128e-06,-2.962233005e-05,-3.353903526e-05
0.65,5.719919026e-06,-8.343642826e-06,-2.216473207e-06,-9.687165964e-06,-7.277914947e-06,-8.243024416e-06,-9.591670797e-07,-3.244526143e-06,-1.170367601e-06,-1.172044970e-06,1.291058633e-06,2.859944214e-06,4.348120290e-06,4.806609563e-06,9.153356064e-06,9.614986529e-06,-7.363239050e-07,-8.944492872e-06,-3.023180950e-06,-2.572629619e-06,9.261273815e-07,-5.050635960e-07,2.557690959e-06,8.107027603e-07,2.872962805e-06,3.767148540e-06,4.524607326e-06,7.706206489e-06,-3.770360336e-05,-4.049650969e-05
0.655,-6.411094607e-07,-1.093894502e-05,-2.978733793e-06,-1.075075496e-05,-1.008180466e-05,-1.009821502e-05,3.672965231e-07,-7.292427271e-06,-1.711384749e-06,-5.178063671e-06,-9.957592518e-07,2.888018996e-07,1.185085174e-06,2.531281590e-06,7.061390874e-06,6.456370702e-06,-7.632007577e-06,-1.155923518e-05,-2.710447722e-06,-2.400019668e-06,1.408480344e-06,-1.749342527e-07,4.139176819e-06,-7.445755349e-08,2.280219955e-06,2.648999229e-06,3.921753914e-06,5.322916428e-06,-1.302606469e-04,-5.202560199e-06
0.66,-6.568913201e-06,-1.135490828e-05,-3.947259073e-06,-1.011971959e-05,-8.641388980e-06,-9.646079280e-06,-1.563984721e-06,-7.902003333e-06,-1.270761447e-06,-6.412908002e-06,-1.997455143e-06,-5.036142696e-07,1.656302454e-07,1.387798100e-06,5.579080953e-06,4.857582699e-06,-9.420149880e-06,-9.684021128e-06,-3.099664298e-06,-2.813496634e-06,1.462349802e-06,-1.227374990e-07,3.514218599e-06,-1.770357538e-07,1.879144149e-06,2.379929574e-06,4.601846295e-06,3.416497156e-06,-1.103071701e-04,-4.734894136e-06
0.665,-8.286768954e-06,-8.063856617e-06,-3.745206897e-06,-8.797585654e-06,-4.500480857e-06,-8.185356825e-06,-6.701604992e-06,-5.942794415e-06,-1.324901867e-06,-4.520102336e-06,-2.011352021e-06,1.017015543e-06,1.076828585e-06,1.013890245e-06,4.984921842e-06,4.966390053e-06,-7.066231940e-06,-3.675361363e-06,-3.070046984e-06,-3.150211019e-06,2.563372161e-06,-4.194001239e-07,2.388776229e-06,-2.303437855e-07,1.907584280e-06,2.385154648e-06,6.205735573e-06,3.192712419e-06,-1.606990928e-05,-2.759377163e-05
0.67,-7.710304684e-06,-3.579292539e-06,-2.786761297e-06,-7.792681142e-06,-1.501166123e-06,-7.294715623e-06,-1.065664422e-05,-3.962879156e-06,-2.658779929e-06,-1.752094511e-06,-2.041555274e-06,3.009855940e-06,2.090160546e-06,5.587061164e-07,4.899679486e-06,5.335744697e-06,-5.508640858e-06,2.042004870e-06,-2.331005489e-06,-2.880154348e-06,4.334121951e-06,-8.305148459e-07,3.483772739e-06,-7.214123161e-07,2.400387891e-06,2.097626173e-06,7.977236150e-06,4.708176211e-06,-2.766222710e-05,-3.729065731e-05
0.675,-8.453967245e-06,-1.716546975e-06,-2.531068890e-06,-7.025406729e-06,-1.603279010e-06,-7.540425859e-06,-8.967330994e-06,-3.504722136e-06,-4.563938747e-06,-5.661953602e-07,-2.626980024e-06,3.634976761e-06,1.902060661e-06,-1.931723191e-07,5.117050453e-06,5.024592364e-06,-6.556505601e-06,4.024154778e-06,-1.701465157e-06,-2.281347683e-06,4.931371320e-06,-1.299547202e-06,7.802237284e-06,-1.505505436e-06,2.973481421e-06,1.616719527e-06,9.353910835e-06,7.038676825e-06,-1.310570867e-04,4.877361207e-06
0.68,-1.090932319e-05,-4.399393277e-06,-3.590553375e-06,-6.257117892e-06,-3.277570775e-06,-8.570858997e-06,-2.031399231e-06,-4.171351414e-06,-5.960768541e-06,-1.412313148e-06,-3.465327266e-06,3.078367184e-06,8.419049725e-07,-7.713686986e-07,5.687358243e-06,4.620179550e-06,-7.339031787e-06,3.064867300e-06,-2.433514361e-06,-2.486416541e-06,2.948225525e-06,-2.352832548e-06,1.312165687e-05,-2.403630126e-06,2.858686235e-06,1.353525428e-06,9.959491058e-06,8.928599541e-06,-1.215246377e-04,7.106618439e-06
0.685,-1.191815942e-05,-1.057763954e-05,-4.883455708e-06,-5.931363816e-06,-3.754917878e-06,-9.635961201e-06,5.025224733e-06,-4.730977627e-06,-6.548203887e-06,-2.773076916e-06,-3.866801199e-06,2.907436075e-06,1.134221197e-07,-7.634019072e-07,6.445708163e-06,5.124747568e-06,-5.384920340e-06,2.191876171e-06,-4.622021290e-06,-4.155923574e-06,-7.859157226e-07,-4.288082684e-06,1.572294380e-05,-3.435989029e-06,1.689049259e-06,1.496360752e-06,9.611788724e-06,9.597411293e-06,-1.843236092e-05,-2.396900396e-05
0.69,-8.699684581e-06,-1.695600946e-05,-4.725422429e-06,-6.357868294e-06,-2.077495583e-06,-9.754289685e-06,7.459165747e-06,-4.467991742e-06,-6.537412019e-06,-2.976085674e-06,-3.381397302e-06,3.836589847e-06,3.887518027e-07,-2.885479051e-07,6.885170941e-06,6.362194456e-06,-2.612103493e-06,2.465004883e-06,-6.308832845e-06,-6.087249728e-06,-3.340756062e-06,-6.023628862e-06,1.381387045e-05,-4.257956034e-06,2.378944049e-07,1.982839779e-06,8.563728966e-06,9.178357616e-06,-3.213912696e-05,-2.121858747e-05
0.695,-2.111222820e-06,-1.938863653e-05,-2.538305994e-06,-6.706723320e-06,3.812322614e-07,-8.057948896e-06,5.248721087e-06,-3.491939987e-06,-5.885303241e-06,-1.735207323e-06,-2.196771851e-06,4.770390048e-06,1.236429149e-06,1.664720644e-07,6.552409374e-06,6.962220410e-06,-2.644163306e-06,2.061030996e-06,-4.965385409e-06,-5.924759177e-06,-2.055779601e-06,-5.652855165e-06,9.082648289e-06,-4.036307546e-06,-1.615700363e-07,2.613648773e-06,7.393892803e-06,8.322498538e-06,-1.315930103e-04,1.139339484e-05
0.7,4.270526421e-06,-1.484591164e-05,7.363732146e-07,-5.831350986e-06,1.924265266e-06,-4.721839097e-06,2.161684720e-06,-2.331295391e-06,-4.535734407e-06,-1.246278175e-07,-1.195572618e-06,4.185517517e-06,1.636277964e-06,8.506091205e-08,5.349463305e-06,5.855021228e-06,-5.271687949e-06,-3.596353396e-07,-3.885202788e-07,-2.808719577e-06,2.915650379e-06,-2.722208815e-06,4.947408565e-06,-2.534065694e-06,7.895585578e-07,2.879052981e-06,6.347609349e-06,7.288901974e-06,-1.245378604e-04,2.091293961e-05
0.705,7.797479114e-06,-3.798934708e-06,3.809819561e-06,-3.981137601e-06,2.415928505e-06,-1.390871004e-06,1.352977122e-06,-1.566486634e-06,-3.227133400e-06,5.721327500e-07,-1.460782179e-06,2.024041950e-06,8.757073652e-07,-8.664990238e-07,3.457125687e-06,3.419946662e-06,-5.754509295e-06,-2.652019415e-06,4.386227814e-06,1.129888013e-06,8.611436926e-06,5.831609120e-07,3.744557718e-06,-1.015357180e-06,1.769247733e-06,2.011538255e-06,5.015582950e-06,5.626887441e-06,-2.065085266e-05,-4.226712316e-05
0.71,8.937596677e-06,8.848541478e-06,6.239248959e-06,-2.626164426e-06,3.063309511e-06,1.263195553e-07,2.793086069e-06,-1.537184949e-06,-3.126486795e-06,-1.022623929e-07,-3.237990121e-06,-1.600841357e-07,-8.382147664e-07,-2.542999793e-06,1.301996477e-06,1.056862670e-06,-2.796936815e-07,-9.049449883e-07,5.925077503e-06,2.770799265e-06,1.209627709e-05,1.480693604e-06,5.739035680e-06,-1.172726355e-06,1.395470206e-06,-1.466785287e-07,3.094017353e-06,3.042572670e-06,-4.288555247e-05,-4.357095971e-05
0.715,9.823753092e-06,1.636587525e-05,8.202087525e-06,-2.197659623e-06,4.654647811e-06,-7.811079891e-08,4.695246645e-06,-1.946920566e-06,-4.209176013e-06,-1.568188830e-06,-5.209743384e-06,-8.255621377e-07,-2.359146757e-06,-4.007581038e-06,-2.479640056e-07,-1.250986811e-07,9.002733394e-06,5.689183956e-06,4.162472715e-06,1.567679233e-06,1.311351345e-05,-1.192709768e-07,9.969724159e-06,-2.872525503e-06,2.083056492e-07,-2.265971673e-06,1.365579719e-06,4.501097257e-07,-1.287165923e-04,3.032405568e-06
0.72,1.106726222e-05,1.527025823e-05,9.334448160e-06,-1.070685348e-06,6.300499016e-06,1.650279789e-07,6.010826870e-06,-1.824387435e-06,-4.641084799e-06,-2.691469248e-06,-5.234238703e-06,9.648282375e-08,-2.299537169e-06,-3.882097807e-06,-8.022566612e-08,-3.960115547e-08,1.538539585e-05,1.267541261e-05,2.462667444e-06,2.671087395e-07,1.345676619e-05,-1.291593328e-06,1.480885913e-05,-3.723682491e-06,3.074842012e-07,-2.233472925e-06,1.261558951e-06,-4.169593827e-07,-1.407580160e-04,-1.220017373e-05
0.725,1.053620890e-05,8.367455337e-06,8.441370477e-06,2.046038410e-06,6.031922713e-06,2.562321582e-06,6.612546010e-06,-3.656433579e-07,-2.662442804e-06,-2.514297986e-06,-2.373119991e-06,1.359601396e-06,-1.864930073e-07,-1.600711866e-06,2.155980555e-06,6.919354816e-07,1.382136228e-05,1.404651091e-05,3.450469689e-06,1.493338191e-06,1.384793097e-05,3.183791858e-07,1.764806290e-05,-1.697259828e-06,2.626842011e-06,6.070335802e-07,3.029416851e-06,1.145306150e-06,-3.236200513e-05,-5.028236185e-05
0.73,5.672057002e-06,2.274237467e-06,4.854417419e-06,5.182942569e-06,2.777969411e-06,5.882431259e-06,5.891832703e-06,1.962914759e-06,9.416517604e-07,-8.762865652e-07,1.774124412e-06,1.704714663e-06,2.852165750e-06,1.589251259e-06,5.174276715e-06,1.423919664e-06,5.323403265e-06,8.291959654e-06,5.551747410e-06,4.218502153e-06,1.247394049e-05,3.237326608e-06,1.563568757e-05,2.063156464e-06,5.191299387e-06,4.132568025e-06,4.776902964e-06,3.619085494e-06,-3.574392202e-05,-2.017964388e-05
0.735,-2.899852704e-06,1.292614169e-06,-5.530482946e-08,4.323925614e-06,-2.122562649e-06,6.885109281e-06,2.930181450e-06,3.482074405e-06,3.125027959e-06,1.375130054e-06,4.223092449e-06,8.740808532e-07,4.807977736e-06,3.391429479e-06,6.775133005e-06,1.882240176e-06,-4.252876973e-06,3.224245585e-07,4.824773340e-06,4.743293364e-06,7.535767143e-06,3.639708006e-06,8.418099764e-06,4.028058235e-06,5.021047178e-06,5.161280434e-06,4.190245842e-06,4.569609700e-06,-1.468084224e-04,3.141267176e-05
0.74,-1.045394108e-05,3.553710742e-06,-3.355108337e-06,-1.561226352e-06,-5.557720692e-06,4.061373526e-06,-1.380268008e-06,2.840842015e-06,1.860885888e-06,2.821173402e-06,3.432073168e-06,-3.781254343e-07,4.573168369e-06,2.697655506e-06,5.989832533e-06,2.263542792e-06,-8.893458112e-06,-2.947417177e-06,1.958024889e-07,1.349322048e-06,8.280395643e-07,1.878579134e-07,9.627966383e-08,2.291515564e-06,1.848969691e-06,2.871543691e-06,1.450589273e-06,3.383043029e-06,-1.251064755e-04,2.165582633e-05
0.745,-1.164771629e-05,3.310442639e-06,-3.092502468e-06,-7.833910041e-06,-5.297706636e-06,-2.193010918e-07,-3.746271926e-06,4.320720356e-07,-1.362461380e-06,2.426498429e-06,8.231268643e-07,-9.292681841e-07,3.033967178e-06,9.251123563e-07,4.360529088e-06,3.156126794e-06,-6.301171337e-06,1.082403030e-06,-4.472508347e-06,-3.115386052e-06,-2.743661396e-06,-3.778398404e-06,-3.215753210e-06,-9.143036261e-07,-9.490921020e-07,3.212522410e-08,-2.203592503e-07,2.255970231e-06,-2.426612308e-05,-2.818192389e-05
0.75,-5.605936901e-06,-2.935126089e-06,-3.725728395e-07,-8.306526553e-06,-2.327393356e-06,-2.079506640e-06,-1.699163768e-06,-2.044033749e-06,-3.106067570e-06,3.749905388e-07,-8.030145570e-07,-1.775206373e-08,2.140399675e-06,6.322042804e-07,4.511185378e-06,5.112691437e-06,1.075143424e-06,8.716197050e-06,-4.560263250e-06,-4.267089905e-06,-2.034134855e-07,-3.870477457e-06,8.908938386e-07,-1.577208760e-06,1.446189744e-07,2.103720250e-07,2.316097580e-06,3.920449874e-06,-1.145376279e-05,-2.120208611e-05
0.755,2.500612548e-06,-1.257115718e-05,1.490688803e-06,-2.298386113e-06,-2.211534270e-07,-5.013570403e-07,2.539900834e-06,-3.404650506e-06,-1.975393180e-06,-1.940771562e-06,-2.523409386e-07,2.215939568e-06,2.817809270e-06,2.667288977e-06,7.228067558e-06,7.934996982e-06,7.590649105e-06,1.383153295e-05,-3.658066549e-07,-1.415073107e-06,5.548143505e-06,2.025263137e-08,8.186326542e-06,1.385850962e-06,4.685648066e-06,3.842529509e-06,8.447490171e-06,8.447860953e-06,-1.382074853e-04,3.290735822e-05
0.76,5.661874070e-06,-1.896785818e-05,1.723216551e-07,3.823677523e-06,-1.627953935e-06,1.528803760e-06,3.047134853e-06,-3.951565949e-06,-2.020017141e-07,-2.893482357e-06,1.064771150e-06,4.639357790e-06,4.068766415e-06,5.102056786e-06,1.036642521e-05,1.042517413e-05,7.827629463e-06,1.325280055e-05,2.799249057e-06,1.455904711e-06,8.183058366e-06,3.337062003e-06,1.171958653e-05,4.753206124e-06,8.513812825e-06,7.693753442e-06,1.388232079e-05,1.284709961e-05,-1.288990840e-04,-1.067140498e-05
0.765,1.434517614e-06,-1.739184237e-05,-3.414331489e-06,3.219911392e-06,-5.336352035e-06,5.962636856e-07,-3.565656115e-06,-4.436671927e-06,-7.914723488e-07,-1.839789787e-06,1.166022953e-06,5.810024439e-06,4.341803286e-06,5.355706268e-06,1.108359208e-05,1.127177242e-05,5.412425438e-07,8.414183418e-06,6.007521146e-07,3.543848609e-07,4.733998863e-06,2.187201042e-06,8.858059914e-06,4.770016565e-06,8.272302479e-06,8.421184762e-06,1.475126829e-05,1.407576193e-05,-1.317046188e-05,-2.530882677e-05
0.77,-5.915667910e-06,-9.249115499e-06,-6.277193627e-06,-3.949709914e-06,-7.405756915e-06,-3.098981851e-06,-1.327807429e-05,-4.566322423e-06,-3.747198265e-06,4.137131437e-07,-2.116504710e-08,5.185173441e-06,3.524288079e-06,3.139527705e-06,8.976270922e-06,1.043154687e-05,-9.823142325e-06,2.501573975e-06,-5.296032563e-06,-4.001394362e-06,-1.010376405e-06,-2.015816993e-06,3.511324438e-06,1.548160805e-06,4.934214114e-06,6.094317032e-06,1.134619700e-05,1.206450905e-05,-4.429861740e-05,-6.222828177e-05
0.775,-1.007605550e-05,-9.930333018e-07,-6.685057006e-06,-1.089009881e-05,-5.574931224e-06,-6.087367197e-06,-1.753640187e-05,-3.259362841e-06,-6.090237607e-06,2.306735919e-06,-7.517611645e-07,3.769237815e-06,3.092587051e-06,7.447525631e-07,6.444038817e-06,9.371007462e-06,-1.645315155e-05,-3.160230268e-06,-9.239789873e-06,-7.169776122e-06,-2.775684707e-06,-4.342657247e-06,9.633646235e-07,-1.260762709e-06,2.229907182e-06,3.610003443e-06,7.394396453e-06,9.336553182e-06,-1.212887224e-04,3.109015638e-05
0.78,-9.406748483e-06,1.203921988e-06,-6.011548078e-06,-1.192131335e-05,-2.053300502e-06,-5.831719839e-06,-1.179706644e-05,-4.652341735e-07,-5.622291154e-06,2.817846943e-06,1.334420238e-07,3.274449087e-06,4.191598579e-06,3.122684958e-07,5.800002950e-06,9.516443377e-06,-1.631085045e-05,-9.577201730e-06,-8.187758132e-06,-6.402160278e-06,9.934067056e-07,-2.407937227e-06,1.669987680e-06,-1.030520383e-06,2.067147833e-06,2.953976441e-06,5.851685160e-06,7.887742450e-06,-1.176183448e-04,2.797459822e-05
0.785,-8.294265917e-06,-3.521501492e-06,-7.039085544e-06,-8.367425513e-06,-1.122995372e-06,-3.577051479e-06,-5.525709561e-07,2.007023463e-06,-3.639281920e-06,2.255556454e-06,1.632283403e-06,4.371823044e-06,6.020354850e-06,1.365935963e-06,6.563822728e-06,1.045257203e-05,-1.303646932e-05,-1.736268846e-05,-4.906134195e-06,-3.786555221e-06,5.396287251e-06,7.779198132e-07,1.643517827e-06,7.579581321e-07,2.595009540e-06,3.016549309e-06,6.072684088e-06,7.173554687e-06,-2.404019612e-05,-2.165339125e-05
0.79,-1.138024009e-05,-1.015367648e-05,-1.060960584e-05,-5.834713662e-06,-3.960530833e-06,-2.464199104e-06,7.104219128e-06,2.181916080e-06,-3.151622489e-06,1.858871651e-06,1.839214176e-06,5.856502731e-06,6.583501973e-06,1.570283977e-06,6.184529948e-06,1.008485542e-05,-1.290725344e-05,-2.423480006e-05,-4.116982591e-06,-3.351691813e-06,4.814860349e-06,6.491733032e-07,-1.363857469e-06,6.835215668e-07,1.088214370e-06,1.533152354e-06,5.334441096e-06,5.449340507e-06,-4.461900950e-05,-3.236085886e-05
0.795,-1.716669719e-05,-1.220600363e-05,-1.433008860e-05,-6.766916025e-06,-6.800818685e-06,-3.449282347e-06,6.757223073e-06,3.393554176e-07,-4.893935360e-06,2.566685876e-06,4.020986335e-07,5.805140128e-06,4.963926837e-06,-2.617210554e-07,3.294664918e-06,6.913335095e-06,-1.772158833e-05,-2.581863079e-05,-6.608173253e-06,-5.898191788e-06,-7.129848894e-07,-3.198773352e-06,-4.217943971e-06,-2.060359031e-06,-2.227349831e-06,-1.533415137e-06,2.479120721e-06,2.459436712e-06,-1.338261743e-04,2.584506097e-05
0.8,-1.880791021e-05,-7.458006408e-06,-1.476958567e-05,-7.673785572e-06,-5.050514632e-06,-4.155222241e-06,2.525965822e-06,-9.448154154e-07,-6.216686859e-06,4.099150598e-06,-9.590985803e-07,3.627442462e-06,2.393585029e-06,-2.605058264e-06,-4.579847691e-07,1.987266279e-06,-2.257029843e-05,-1.938712742e-05,-8.564111365e-06,-8.005961340e-06,-5.894959383e-06,-6.463662539e-06,-2.433869381e-06,-4.504536031e-06,-4.308144243e-06,-3.588642707e-06,-7.847999847e-07,-4.711525722e-08,-1.132347916e-04,1.340417695e-05
0.805,-1.196005362e-05,8.193057310e-09,-1.085129554e-05,-4.186625809e-06,1.128944813e-06,-1.979821725e-06,1.417460102e-06,4.204079161e-07,-4.315586658e-06,5.228792831e-06,-5.312495140e-07,7.969562046e-07,8.724300584e-07,-2.994133657e-06,-2.202076596e-06,-1.779546857e-06,-2.131880322e-05,-7.115828736e-06,-6.660340598e-06,-6.329591037e-06,-6.516458688e-06,-5.323734580e-06,3.148061929e-06,-3.559007907e-06,-3.141330998e-06,-2.535172621e-06,-2.194371462e-06,-5.161036047e-07,-1.655830956e-05,-1.658844403e-05
0.81,-9.600084198e-07,3.491560428e-06,-5.012273404e-06,2.734713523e-06,6.378251865e-06,2.453845310e-06,5.011652501e-06,3.517052859e-06,1.728912892e-07,4.968217814e-06,1.298520514e-06,-5.688263171e-07,1.029935339e-06,-9.748749033e-07,-1.095019723e-06,-2.344726859e-06,-1.365116268e-05,4.417137089e-06,-2.409930226e-06,-1.798458806e-06,-3.986844897e-06,-9.562949330e-07,6.025579779e-06,1.094148201e-07,-3.858932916e-07,4.905367047e-07,-1.711681961e-06,4.538384601e-07,-2.415799983e-05,-3.771026223e-05
0.815,4.416641170e-06,-1.729279482e-07,-1.128967803e-06,7.251813461e-06,5.661507970e-06,5.659152077e-06,8.152305222e-06,5.165955818e-06,3.606251208e-06,3.477346815e-06,2.466819217e-06,2.520461191e-07,1.699116005e-06,1.266338702e-06,7.878082072e-07,-3.909901181e-07,-5.526028756e-06,8.618131670e-06,-4.809466806e-07,1.331814269e-06,-3.026241307e-06,1.940131838e-06,1.269035667e-06,2.732391922e-06,5.061094548e-07,2.196078895e-06,-1.349921962e-06,9.047133679e-07,-1.256146738e-04,2.263510873e-05
0.82,-9.259051413e-07,-7.816099232e-06,-1.313458459e-06,5.088650634e-06,-4.026922148e-07,4.926751421e-06,5.774375037e-06,3.244453881e-06,3.269734180e-06,1.799570709e-06,1.587543407e-06,2.060616770e-06,1.484508562e-06,1.276633823e-06,8.519225912e-07,1.630439417e-06,-2.585411129e-06,3.871148657e-06,-3.210399833e-06,2.768845442e-07,-5.776904704e-06,5.837410789e-07,-8.233863020e-06,1.749444712e-06,-1.637294493e-06,7.662998286e-07,-2.463758750e-06,-3.967371713e-08,-1.208150698e-04,2.926821415e-05
0.825,-1.125273795e-05,-1.315776146e-05,-4.383669117e-06,-1.836629278e-06,-6.330632786e-06,1.042666916e-06,-6.368084322e-07,-1.074783299e-06,2.093514180e-07,7.967213666e-07,-5.682141159e-07,3.088193474e-06,3.110674252e-07,-1.050902828e-06,-1.201887272e-06,2.048761043e-06,-4.263013117e-06,-4.962498041e-06,-7.866391561e-06,-3.296181399e-06,-9.361149006e-06,-2.942505045e-06,-1.430481404e-05,-1.389049857e-06,-4.314091307e-06,-2.182098407e-06,-3.935803906e-06,-1.196588015e-06,-1.156679774e-05,-1.425182074e-05
0.83,-1.515673931e-05,-1.263671493e-05,-6.999742117e-06,-7.675182901e-06,-7.498413466e-06,-2.663487949e-06,-4.733029816e-06,-4.535309932e-06,-2.079161388e-06,4.682284082e-07,-2.020546717e-06,2.600588738e-06,-7.438053982e-07,-3.455962098e-06,-3.259284241e-06,1.303101644e-06,-5.213669377e-06,-1.007190934e-05,-9.540803556e-06,-5.218942075e-06,-9.175550378e-06,-4.226610633e-06,-1.197263198e-05,-2.989540566e-06,-4.091163100e-06,-3.396647647e-06,-3.381632951e-06,-8.872799030e-07,-2.837864712e-05,-2.165246303e-05
0.835,-7.275890117e-06,-7.930313255e-06,-6.335779358e-06,-8.543803027e-06,-4.251798678e-06,-3.485480571e-06,-2.936015036e-06,-4.989911378e-06,-1.307513667e-06,2.821532671e-07,-1.652098501e-06,1.164507252e-06,-8.339264029e-07,-3.686123653e-06,-3.238832440e-06,8.778174069e-07,-1.896233109e-06,-6.758964040e-06,-6.058070758e-06,-3.094491961e-06,-3.624941861e-06,-1.155268671e-06,-4.075381439e-06,-1.103486340e-06,-1.570595485e-07,-1.310681590e-06,1.438065147e-07,1.071252766e-06,-1.413863533e-04,-9.572199529e-06
0.84,5.659292658e-06,-3.190528306e-06,-2.359230928e-06,-5.345038383e-06,-4.194313271e-07,-1.413522963e-06,1.285153751e-06,-3.202165232e-06,1.610603923e-06,-9.065285064e-08,-1.435441128e-07,-3.088562457e-07,-2.281687058e-07,-1.674708839e-06,-1.284050952e-06,1.364191272e-06,3.497638773e-06,2.722244132e-06,2.616401013e-07,1.687938754e-06,4.632975458e-06,4.359632182e-06,2.747221678e-06,2.696902144e-06,5.057052861e-06,2.609595339e-06,4.957732646e-06,3.279322065e-06,-1.261673123e-04,1.181216188e-05
0.845,1.105791494e-05,-8.553947174e-07,1.793854805e-06,-1.532279117e-06,1.008652586e-06,1.304581976e-06,1.587851885e-06,-1.762428729e-06,3.788593193e-06,-6.208632866e-07,8.206401368e-07,-1.441642779e-06,5.322646402e-08,4.422839983e-07,4.196785997e-07,1.815645407e-06,5.729108783e-06,1.077072695e-05,4.950768303e-06,5.550188729e-06,1.111141966e-05,8.482013220e-06,4.978022726e-06,5.091398268e-06,8.188079412e-06,5.344187860e-06,8.101344774e-06,4.246013374e-06,-2.548099312e-05,-3.287443617e-05
0.85,2.740855163e-06,-7.467285936e-07,1.833588433e-06,3.109204852e-07,-1.984787018e-07,1.979814713e-06,-3.734196180e-06,-2.678630226e-06,2.907854771e-06,-1.393569099e-06,-1.353883793e-07,-2.402131884e-06,-8.956361553e-07,1.060514591e-07,-3.641940252e-07,8.238930738e-07,1.938728587e-06,1.037667863e-05,4.772149610e-06,5.579898096e-06,1.237382352e-05,8.408186877e-06,3.918028806e-06,3.844274060e-06,7.345817453e-06,4.642945358e-06,7.599910904e-06,3.391097451e-06,-3.066514714e-05,-4.524399379e-05
0.855,-1.324253918e-05,-2.321985666e-06,-4.298366799e-06,-6.444184700e-07,-3.112385246e-06,-8.900929680e-07,-9.898545621e-06,-6.022249423e-06,-1.370522507e-06,-2.814087041e-06,-3.381922489e-06,-3.441464573e-06,-3.379850710e-06,-3.773717330e-06,-4.159473065e-06,-2.035324932e-06,-6.272706163e-06,6.641404958e-07,-6.380612170e-07,1.138591964e-06,7.432365918e-06,3.684107303e-06,1.757014488e-06,-9.803761452e-07,2.766206556e-06,2.395541346e-07,3.637781637e-06,7.709678932e-07,-1.249996115e-04,-4.901660372e-06
0.86,-2.484045702e-05,-5.944333042e-06,-1.417888285e-05,-4.418180905e-06,-7.344254262e-06,-6.765617210e-06,-1.151475387e-05,-1.035759762e-05,-7.583750460e-06,-5.039705782e-06,-8.201507116e-06,-4.632259006e-06,-7.009357032e-06,-1.006083993e-05,-9.491018630e-06,-5.739900426e-06,-1.521319961e-05,-1.245276060e-05,-8.988474881e-06,-6.116846174e-06,-1.841819852e-06,-3.940979691e-06,-1.413391577e-06,-7.571598656e-06,-3.711084775e-06,-6.228468778e-06,-1.795374746e-06,-3.255846873e-06,-1.199805209e-04,1.774520902e-05
0.865,-2.543121470e-05,-1.115129664e-05,-2.215652300e-05,-1.035911054e-05,-1.234352804e-05,-1.315903939e-05,-9.052685675e-06,-1.397621799e-05,-1.333641376e-05,-7.371711394e-06,-1.298385990e-05,-5.871888870e-06,-1.070937187e-05,-1.603126437e-05,-1.389199796e-05,-8.508418117e-06,-2.206786706e-05,-2.096482854e-05,-1.651257554e-05,-1.307778588e-05,-1.107117299e-05,-1.120154017e-05,-5.850435976e-06,-1.340498649e-05,-9.355325828e-06,-1.199485921e-05,-6.076645760e-06,-7.554808563e-06,-1.654346029e-05,-2.024816031e-05
0.87,-1.887084840e-05,-1.502140399e-05,-2.374567017e-05,-1.639553641e-05,-1.609776651e-05,-1.696703712e-05,-8.187759817e-06,-1.582950253e-05,-1.636343858e-05,-8.645906649e-06,-1.586355577e-05,-6.859585280e-06,-1.305183406e-05,-1.904037716e-05,-1.541739306e-05,-8.981158346e-06,-2.549639927e-05,-2.086653093e-05,-1.989274628e-05,-1.668818542e-05,-1.554581462e-05,-1.474848688e-05,-9.514939006e-06,-1.625028853e-05,-1.166332812e-05,-1.451146197e-05,-7.315226105e-06,-1.003539214e-05,-1.279652217e-05,-2.182005574e-05
0.875,-1.393906644e-05,-1.434923526e-05,-1.945246511e-05,-1.959435046e-05,-1.617541791e-05,-1.657605971e-05,-1.282734272e-05,-1.581806131e-05,-1.573673802e-05,-8.397952042e-06,-1.586584152e-05,-7.109512645e-06,-1.315250295e-05,-1.830194338e-05,-1.387510529e-05,-7.180942679e-06,-2.497498725e-05,-1.470453248e-05,-1.844488699e-05,-1.582804006e-05,-1.382096090e-05,-1.338258288e-05,-9.613464293e-06,-1.534428655e-05,-1.004694394e-05,-1.311944212e-05,-5.478030177e-06,-9.070747722e-06,-1.291218739e-04,2.864419256e-05
0.88,-1.499414774e-05,-9.920674098e-06,-1.416439379e-05,-1.843429727e-05,-1.241370732e-05,-1.299837885e-05,-2.000625480e-05,-1.451551492e-05,-1.252651199e-05,-7.354710447e-06,-1.367319216e-05,-6.294140420e-06,-1.146554347e-05,-1.540458281e-05,-1.096122336e-05,-4.638926065e-06,-2.109809555e-05,-8.804246792e-06,-1.471675710e-05,-1.215184251e-05,-9.311413333e-06,-9.264098068e-06,-6.630226837e-06,-1.208399899e-05,-6.635335067e-06,-9.722576979e-06,-2.497496501e-06,-5.427881908e-06,-1.236884551e-04,3.818739433e-05
0.885,-1.867925532e-05,-7.028212449e-06,-1.238347404e-05,-1.417975351e-05,-7.586310067e-06,-8.677035229e-06,-2.260377522e-05,-1.250180840e-05,-8.923370481e-06,-6.454490541e-06,-1.094839988e-05,-4.713005207e-06,-9.374770380e-06,-1.280497574e-05,-8.888778920e-06,-3.306493640e-06,-1.631589123e-05,-7.875852358e-06,-1.214887206e-05,-8.574577395e-06,-7.108212449e-06,-6.090695903e-06,-4.553921085e-06,-9.023491183e-06,-4.570169789e-06,-7.219807928e-06,-7.877684937e-07,-2.050143858e-06,-3.434834029e-05,-1.161479243e-05
0.89,-1.913878597e-05,-1.008534236e-05,-1.406946331e-05,-9.420134374e-06,-4.685159523e-06,-5.069765982e-06,-1.689668972e-05,-9.818731183e-06,-6.259372050e-06,-5.538384883e-06,-8.656135062e-06,-3.190117623e-06,-7.704817857e-06,-1.145502684e-05,-8.409146138e-06,-3.787270614e-06,-1.390278704e-05,-1.159227155e-05,-1.166205777e-05,-6.539731905e-06,-8.605363478e-06,-5.453153895e-06,-5.910512580e-06,-7.540215773e-06,-4.895351599e-06,-6.734712277e-06,-1.094948017e-06,-1.191766947e-06,-2.659179089e-05,-2.219202036e-05
0.895,-1.504364365e-05,-1.701097161e-05,-1.544898824e-05,-5.601795772e-06,-4.048107268e-06,-1.787283366e-06,-6.671002309e-06,-6.242938062e-06,-4.028445980e-06,-3.531659324e-06,-6.296793624e-06,-2.230674602e-06,-5.867684728e-06,-1.004060564e-05,-8.183846089e-06,-4.534112865e-06,-1.526211630e-05,-1.565071887e-05,-1.105857908e-05,-5.101068223e-06,-1.013313287e-05,-5.442123982e-06,-8.102550218e-06,-6.617700775e-06,-5.528396728e-06,-6.627846679e-06,-1.849419016e-06,-2.007010226e-06,-1.291157405e-04,3.975264942e-05
0.9,-1.059421661e-05,-2.066280341e-05,-1.374785083e-05,-2.743112233e-06,-3.941974401e-06,1.708742832e-06,3.835377762e-07,-2.282265695e-06,-1.211742926e-06,-1.522985586e-07,-3.118911147e-06,-1.364121805e-06,-2.929933452e-06,-6.918101593e-06,-6.469165740e-06,-3.293457934e-06,-1.856985935e-05,-1.588684649e-05,-8.305221640e-06,-3.015861357e-06,-7.780993638e-06,-3.503641103e-06,-6.759842069e-06,-4.450805004e-06,-3.953046949e-06,-4.743477389e-06,-1.027852244e-06,-1.744482656e-06,-1.204077446e-04,4.007340731e-05
0.905,-1.006525302e-05,-1.665595461e-05,-1.036942889e-05,-1.249293386e-06,-3.574880029e-06,4.244112862e-06,-4.540292754e-08,3.888193786e-07,1.675766806e-06,2.989913952e-06,1.659209405e-07,3.261013029e-07,5.479467321e-07,-2.680919299e-06,-3.457665050e-06,2.432090995e-07,-2.064580977e-05,-1.169407957e-05,-4.785530443e-06,-1.145898539e-06,-2.823497940e-06,-2.144970112e-07,-2.275524843e-06,-1.158589797e-06,-6.609191987e-07,-1.435884870e-06,1.345491541e-06,6.107620395e-07,-2.938091162e-05,-1.674401576e-05
0.91,-1.270509685e-05,-8.655203117e-06,-8.896796179e-06,-2.502277521e-06,-4.203133465e-06,3.787831517e-06,-5.413063686e-06,1.322910910e-07,2.661144168e-06,3.643080709e-06,1.589502711e-06,2.887378507e-06,2.426026944e-06,-1.229968187e-07,-1.442091738e-06,3.523776418e-06,-1.998643087e-05,-6.046636436e-06,-4.076541269e-06,-1.706169158e-06,-6.864037908e-07,1.031763427e-06,-3.379961328e-07,8.937875943e-07,1.095398008e-06,4.743690575e-07,3.054862561e-06,2.793758777e-06,-3.913723994e-05,-2.321372323e-05
0.915,-1.393485708e-05,-4.487585703e-06,-1.046765571e-05,-6.678977801e-06,-6.755919611e-06,3.407181064e-07,-9.591338234e-06,-2.714805283e-06,8.241349674e-07,1.403213826e-06,1.969452724e-07,5.009233425e-06,1.271837408e-06,-1.182865697e-06,-2.230433610e-06,3.540153024e-06,-1.750630465e-05,-2.559460963e-06,-7.297435674e-06,-4.951873911e-06,-4.170303187e-06,-1.506550688e-06,-4.515161923e-06,-6.090479061e-08,-6.243518913e-07,-8.471213559e-07,2.348158168e-06,2.052852221e-06,-1.384958598e-04,3.331347444e-05
0.92,-1.119352365e-05,-7.283300395e-06,-1.222215929e-05,-1.083786194e-05,-9.524937407e-06,-2.985684772e-06,-8.911207708e-06,-5.531268713e-06,-1.863638804e-06,-1.513584308e-06,-2.344953014e-06,5.208561899e-06,-1.551630440e-06,-4.297811236e-06,-4.691606463e-06,3.060587581e-07,-1.465160025e-05,-2.422054074e-06,-1.093171501e-05,-7.757034555e-06,-9.354880188e-06,-4.935758159e-06,-1.014967732e-05,-2.601241144e-06,-3.508668310e-06,-3.520486762e-06,3.074853082e-07,-1.054125457e-06,-1.309657175e-04,3.426380376e-05
0.925,-7.308941862e-06,-1.210318999e-05,-1.076064215e-05,-1.090164598e-05,-9.677656493e-06,-2.758721527e-06,-4.911762929e-06,-5.693210543e-06,-2.125537741e-06,-2.437599058e-06,-3.115061924e-06,3.477425951e-06,-2.850604998e-06,-5.607250353e-06,-5.591862594e-06,-2.670782781e-06,-1.184163623e-05,-3.816326034e-06,-1.046708316e-05,-6.665675179e-06,-9.871097559e-06,-4.588341848e-06,-8.592883506e-06,-3.310720481e-06,-3.265910640e-06,-3.660724974e-06,-1.461036447e-07,-2.864912816e-06,-1.806295128e-05,-1.717339487e-05
0.93,-7.231921289e-06,-1.202161638e-05,-6.396071026e-06,-6.120809352e-06,-7.003478277e-06,1.004381171e-06,-1.820793454e-06,-3.280522353e-06,1.036632231e-06,-1.068347841e-06,-1.027068193e-06,1.410159572e-06,-9.671852420e-07,-3.059225022e-06,-3.123260004e-06,-1.971304113e-06,-9.162660966e-06,-4.060387571e-06,-5.806151218e-06,-2.154033292e-06,-4.709081697e-06,2.621161206e-07,2.068972042e-06,-6.825308214e-07,1.199034022e-06,1.044928029e-07,2.281702900e-06,-9.701694626e-07,-3.525463384e-05,-2.921784487e-05
0.935,-1.190317723e-05,-6.168300851e-06,-2.993585977e-06,-5.216904893e-07,-4.709176549e-06,4.703240403e-06,-2.076638667e-06,-1.055343322e-06,5.018517884e-06,3.144928888e-07,1.957775654e-06,5.420035344e-07,2.285068118e-06,1.228157953e-06,9.339463342e-07,1.917295567e-06,-7.623916328e-06,-2.349971284e-06,-1.642618821e-06,1.390193606e-06,2.529351490e-07,4.980571481e-06,1.304728892e-05,2.977689502e-06,6.026659297e-06,4.717585027e-06,5.468343476e-06,2.622971795e-06,-1.537052730e-04,4.338143763e-07
0.94,-1.662107326e-05,-9.012780964e-08,-3.589564750e-06,1.135275389e-06,-5.618118384e-06,5.107788741e-06,-4.447117369e-06,-1.441960072e-06,6.367764403e-06,-4.347125858e-07,3.046311984e-06,8.342588931e-07,3.602943853e-06,3.266743695e-06,3.148877535e-06,5.105914937e-06,-8.468295439e-06,-5.597853236e-07,-1.988229911e-06,5.379340972e-07,-7.085062991e-07,4.701016788e-06,1.374555510e-05,4.157680524e-06,6.578082997e-06,5.964324519e-06,6.170693656e-06,3.765287141e-06,-1.365943983e-04,7.726627975e-07
0.945,-1.614241774e-05,1.390658738e-06,-7.093546578e-06,-1.539778638e-06,-8.445690899e-06,2.764706444e-06,-6.059310631e-06,-3.842712472e-06,4.488536278e-06,-2.836226370e-06,1.701288891e-06,1.106717836e-06,1.963750482e-06,1.641328734e-06,2.346027191e-06,4.805350524e-06,-1.119561940e-05,-1.360013871e-06,-5.507935795e-06,-3.161554182e-06,-6.165962202e-06,3.620145647e-08,3.770428950e-06,2.204677332e-06,2.772587841e-06,3.242491576e-06,3.890531167e-06,1.355594379e-06,-2.424360994e-05,-2.963933521e-05
0.95,-1.070792579e-05,-5.613152342e-07,-9.898442782e-06,-4.573437184e-06,-9.245463862e-06,8.001695546e-07,-5.711387115e-06,-5.428217877e-06,1.938661595e-06,-4.408609875e-06,-1.375787347e-08,7.846470383e-07,-2.397002466e-07,-1.048055208e-06,8.383575358e-07,2.575834839e-06,-1.334641640e-05,-5.356115614e-06,-7.520275446e-06,-5.092366893e-06,-9.422048833e-06,-3.661256820e-06,-6.326004285e-06,-8.630969325e-08,-8.395742540e-07,1.533575264e-07,1.666681334e-06,-1.043197630e-06,-3.259081119e-05,-4.057879004e-05
0.955,-5.801064820e-06,-1.734529528e-06,-1.013810373e-05,-4.723929316e-06,-6.503779103e-06,7.949657972e-07,-4.960731971e-06,-4.468040772e-06,1.134073220e-06,-3.582078610e-06,-7.517561236e-08,6.572105172e-07,-7.791313243e-08,-1.374184232e-06,1.474867061e-06,2.313367544e-06,-1.292740925e-05,-9.962380554e-06,-6.103080533e-06,-3.251596042e-06,-6.940448081e-06,-2.682943351e-06,-6.803443020e-06,-9.481683709e-09,-4.051573350e-07,2.141210114e-07,2.654020335e-06,5.221188092e-07,-1.307493309e-04,3.543711194e-06
0.96,-5.650967370e-06,-1.375682608e-06,-9.229614386e-06,-3.192535746e-06,-3.293739610e-06,1.058581997e-06,-5.940572511e-06,-2.225110808e-06,1.648276731e-06,-1.438323083e-06,1.194850564e-06,1.625091882e-06,2.425053689e-06,9.563198684e-07,4.093186061e-06,5.295778047e-06,-1.044096469e-05,-1.137311870e-05,-4.339899989e-06,-6.286578799e-07,-2.572901768e-06,8.360964809e-07,8.323873665e-07,1.837199978e-06,2.933603170e-06,2.885130399e-06,6.415820668e-06,5.325268153e-06,-1.210693348e-04,9.287222446e-06
0.965,-8.310787252e-06,-2.869392442e-06,-9.309968338e-06,-3.387347266e-06,-3.269185034e-06,-6.154327482e-07,-8.612407247e-06,-1.088037099e-06,1.326476587e-06,-1.632926365e-07,1.994934331e-06,3.201362524e-06,4.498236983e-06,3.081692423e-06,5.715068244e-06,8.311214651e-06,-8.147401627e-06,-7.988404851e-06,-5.991587536e-06,-1.342675173e-06,-2.279255482e-06,1.919164940e-06,6.727128788e-06,2.623412127e-06,4.781501161e-06,4.567557979e-06,9.259512971e-06,8.409423774e-06,-3.266620975e-05,-1.475174282e-05
0.97,-7.792259150e-06,-8.207911215e-06,-9.788349843e-06,-5.707916132e-06,-5.696111174e-06,-3.394947579e-06,-9.806951135e-06,-1.591249642e-06,-4.714279367e-07,-5.728150060e-07,1.460565902e-06,3.691023161e-06,3.860095641e-06,2.617071483e-06,4.241848550e-06,7.406812759e-06,-6.785815641e-06,-2.464412731e-06,-9.650884896e-06,-5.060791552e-06,-5.974939155e-06,-8.671821927e-07,4.788172130e-06,1.016207813e-06,3.002087342e-06,3.196118999e-06,8.310224882e-06,6.330060446e-06,-3.269407772e-05,-7.922021485e-06
0.975,-2.148400962e-06,-1.293710810e-05,-8.557701284e-06,-6.699244199e-06,-5.645675599e-06,-4.027500127e-06,-6.811479329e-06,-1.531459134e-06,-1.825695475e-06,-9.280421264e-07,1.049848193e-06,2.477578730e-06,1.817512367e-06,6.686427609e-07,1.169950655e-06,2.711075064e-06,-6.179864221e-06,3.658888977e-07,-1.041458732e-05,-7.310367749e-06,-7.479059003e-06,-3.866619230e-06,-1.084013671e-06,-9.666762390e-07,-3.098486728e-08,5.860281002e-07,4.504806901e-06,1.210917951e-06,-1.426185550e-04,7.209957839e-06
0.98,4.452702569e-06,-1.137274873e-05,-4.485287275e-06,-3.317087392e-06,-4.995208491e-07,-7.990281549e-07,4.192604552e-07,7.499747447e-07,-7.201631920e-07,2.617588498e-07,2.115794383e-06,6.733336096e-07,1.078348906e-06,1.231413659e-07,-1.429836575e-07,-1.422704659e-06,-5.354903524e-06,-2.540330835e-06,-5.132751983e-06,-4.469989692e-06,-2.153322866e-06,-2.955731236e-06,-3.027842908e-06,-6.773250638e-07,-5.626296001e-07,3.486138846e-08,1.359010871e-06,-1.638967709e-06,-1.290943667e-04,1.245459917e-06
0.985,4.650222220e-06,-2.213396562e-06,-6.707729459e-07,2.325507410e-06,6.927414271e-06,3.805471037e-06,6.575431002e-06,4.718088318e-06,2.218336645e-06,3.319438988e-06,4.749647097e-06,5.393974772e-07,3.454261582e-06,2.343976505e-06,1.679099243e-06,-1.500863359e-06,-6.978368155e-06,-8.769991365e-06,1.671664514e-06,1.078993938e-06,6.361919847e-06,1.068157580e-06,5.339455754e-07,2.173494313e-06,1.629098786e-06,2.055635268e-06,8.956153527e-07,6.352059901e-08,-4.017207885e-05,-4.427727455e-05
0.99,-9.979774235e-07,6.620892834e-06,6.233484480e-07,5.461982486e-06,1.016099095e-05,5.791586451e-06,7.906966836e-06,6.906253428e-06,4.170240505e-06,5.468948039e-06,6.282729243e-06,1.841363111e-06,6.140665679e-06,4.851016796e-06,4.201244981e-06,1.258131268e-06,-9.773114220e-06,-1.272842982e-05,4.730962738e-06,4.486665620e-06,1.052736908e-05,3.962905856e-06,4.223358092e-06,4.599169520e-06,3.547434419e-06,3.993377762e-06,1.919309725e-06,3.321240159e-06,-2.680913595e-05,-3.599675496e-05
0.995,-7.970710550e-06,1.061800858e-05,-2.477668591e-06,3.189280684e-06,8.139781077e-06,3.553615870e-06,1.327678891e-06,6.489799190e-06,3.242156880e-06,6.337431916e-06,6.220678455e-06,3.484590749e-06,7.408405608e-06,5.082476652e-06,4.203574268e-06,2.347087927e-06,-1.406131936e-05,-8.984512582e-06,-3.647243352e-08,2.164444547e-06,6.368630176e-06,2.635359177e-06,3.058841333e-06,4.553374863e-06,2.285816779e-06,3.005663189e-06,1.689436447e-06,3.461366434e-06,-1.449169880e-04,1.126212414e-05
1,-4.512666267e-06,4.879054754e-06,-2.691234810e-06,-1.540949214e-07,2.566684162e-06,2.839996525e-07,-2.827027282e-06,2.387211921e-06,5.673739090e-07,2.894533428e-06,2.499054836e-06,1.765542648e-06,3.175136790e-06,1.597101783e-06,9.797576692e-07,3.475674245e-07,-7.040596644e-06,-6.851019526e-07,-2.831423855e-06,-8.320128070e-07,2.409141879e-07,-5.852472751e-09,1.369706061e-07,1.411834624e-06,-4.382624357e-08,3.030829265e-07,1.386657319e-07,5.003600774e-07,-9.605881519e-05,-1.917271255e-06
