Time,FP1,AFF5,AFz,F1,FC5,FC1,T7,C3,Cz,CP5,CP1,P7,P3,Pz,POz,O1,FP2,AFF6,F2,FC2,FC6,C4,T8,CP2,CP6,P4,P8,O2,HEOG,VEOG,
-0.1,8.347067800e-07,-4.950393513e-07,-1.363744553e-06,-2.206463194e-06,4.644556067e-07,-2.835372524e-06,1.567586881e-06,9.791867313e-07,1.353199490e-06,2.456102386e-06,3.196982839e-06,-3.943495591e-06,2.974786440e-06,3.155046574e-06,2.966262197e-06,-4.569257600e-07,1.477972043e-06,5.225145652e-07,-2.463937727e-06,-1.110950378e-06,-1.772771230e-06,-9.688742684e-07,-2.739099080e-06,3.147522274e-07,-2.980667030e-06,-8.623466213e-07,-4.348007721e-06,-3.016881351e-06,-4.868554009e-06,-3.348110371e-06
-0.095,1.109999388e-06,-4.601476842e-07,-2.307526209e-06,-3.361628054e-06,1.963325936e-06,-3.547011988e-07,3.629277516e-06,3.589782679e-06,2.968800789e-06,7.166412380e-06,6.604706392e-06,-9.196047919e-06,4.443447699e-06,6.140111296e-06,6.645276298e-06,-1.305849033e-06,2.742104084e-06,2.509223497e-07,-4.263280601e-06,-1.430804829e-06,-1.806705007e-06,-1.824401500e-06,-2.472642951e-06,6.425672099e-07,-4.039548014e-06,-1.392329622e-06,-7.158684782e-06,-3.293105096e-06,-1.439834498e-06,8.202281456e-06
-0.09,2.482148731e-06,2.904194298e-06,1.587077100e-06,9.998821073e-07,4.864429159e-06,4.054309897e-06,6.638620650e-06,6.600876990e-06,4.781680564e-06,8.957702460e-06,7.299889934e-06,-8.557421405e-06,2.958377594e-06,6.291224796e-06,7.618040340e-06,5.527873281e-07,5.443164405e-06,3.351362667e-06,5.959995437e-08,2.124992796e-06,2.459019919e-06,8.414264999e-07,2.967942578e-06,1.675084009e-06,-3.556179184e-07,-2.361840074e-07,-3.594707653e-06,1.112040453e-06,-1.029720822e-05,9.056049036e-06
-0.085,7.392991746e-06,9.468849326e-06,9.265450001e-06,9.053155825e-06,1.170178408e-05,5.260999121e-06,7.201292930e-06,1.212088409e-05,1.073937608e-05,1.130033115e-05,1.120606235e-05,-5.015568597e-06,4.521477556e-06,9.118385490e-06,9.173361495e-06,3.317662140e-06,1.200784133e-05,1.088385571e-05,8.201805401e-06,9.102251805e-06,8.737389016e-06,7.412427333e-06,7.101401229e-06,5.966551362e-06,4.357811931e-06,2.485027058e-06,3.975563113e-07,2.387179636e-06,-9.986055443e-06,6.345603778e-07
-0.08,1.368785333e-05,1.742760239e-05,1.790904149e-05,1.882298275e-05,2.028233969e-05,9.943555061e-06,2.146721118e-06,1.849343651e-05,1.812006436e-05,1.311080051e-05,1.567376236e-05,1.605195216e-07,6.346611768e-06,1.141595118e-05,7.842128311e-06,2.896476011e-06,1.852938859e-05,1.752744455e-05,1.748238163e-05,1.673359823e-05,1.505654362e-05,1.495103620e-05,1.039042758e-05,1.156658998e-05,9.298908126e-06,5.392925831e-06,4.370544755e-06,-1.498004406e-06,-9.072775351e-06,2.105800543e-06
-0.075,1.915403981e-05,2.304434172e-05,2.275058572e-05,2.450923439e-05,2.530233172e-05,1.785104948e-05,-3.235345739e-06,2.188631628e-05,2.228433332e-05,1.283714100e-05,1.785374146e-05,1.389433652e-06,6.420664294e-06,1.084384983e-05,2.935226029e-06,-2.662557025e-06,2.246580604e-05,1.955306262e-05,2.215181400e-05,2.026223091e-05,1.764870919e-05,1.861488547e-05,1.250855579e-05,1.460510621e-05,1.081961284e-05,5.621895469e-06,4.870297224e-06,-1.068663476e-05,-1.092508836e-05,1.277628255e-05
-0.07,2.196718499e-05,2.336137104e-05,2.227875513e-05,2.358192627e-05,2.311135540e-05,2.350808332e-05,-2.952709547e-06,1.916642227e-05,2.013348382e-05,8.803924837e-06,1.492372887e-05,-1.512291566e-06,3.325181677e-06,6.321785111e-06,-3.792380946e-06,-9.682602643e-06,2.300532984e-05,1.773199209e-05,2.106626934e-05,1.888960372e-05,1.692344654e-05,1.768127726e-05,1.452301519e-05,1.339987391e-05,9.921549497e-06,3.552600009e-06,3.791960325e-06,-1.788536765e-05,-9.434449954e-06,1.896208855e-05
-0.065,2.139280489e-05,1.765430779e-05,1.785334534e-05,1.708979754e-05,1.543907343e-05,1.909486634e-05,3.412778569e-06,1.160936551e-05,1.404499340e-05,2.653408083e-06,9.255714943e-06,-4.713753001e-06,3.601924733e-07,1.886339273e-06,-6.784868660e-06,-1.155432219e-05,2.133684739e-05,1.589154359e-05,1.659516226e-05,1.529904354e-05,1.521662870e-05,1.513848582e-05,1.484610592e-05,1.036997770e-05,9.160219861e-06,2.419623228e-06,3.655457243e-06,-1.631975008e-05,-2.195379188e-05,1.324519750e-05
-0.06,1.652270774e-05,7.894331045e-06,1.189365926e-05,8.902593618e-06,7.264776008e-06,5.346633677e-06,9.422827740e-06,3.583086252e-06,8.572382659e-06,-2.789567137e-06,4.818464845e-06,-3.105634452e-06,8.533508218e-07,1.273442322e-06,-3.110038634e-06,-5.029346275e-06,1.740991139e-05,1.501502038e-05,1.220829924e-05,1.237402650e-05,1.401599718e-05,1.371286246e-05,1.190017077e-05,8.775314793e-06,1.046612432e-05,4.972374589e-06,6.218592407e-06,-5.011672716e-06,-9.055012443e-06,2.734488221e-07
-0.055,7.514531082e-06,-2.528270756e-06,5.524009719e-06,1.866083437e-06,2.001087249e-06,-8.933086466e-06,9.056650342e-06,-1.343518810e-06,5.901415172e-06,-5.585417946e-06,3.589656601e-06,3.349142797e-06,4.820528982e-06,4.103697948e-06,4.463732514e-06,6.023912410e-06,1.058917821e-05,1.220985712e-05,8.495249460e-06,9.870856342e-06,1.172035611e-05,1.242733109e-05,5.812585343e-06,8.941831801e-06,1.199313648e-05,9.740605495e-06,9.540834136e-06,8.975597646e-06,-8.122153234e-06,6.048594344e-06
-0.05,-2.850454569e-06,-1.028522970e-05,-7.581903369e-07,-3.105633647e-06,-1.010355253e-06,-1.492261077e-05,2.214273638e-06,-3.320566097e-06,3.853947063e-06,-5.959881828e-06,3.113320292e-06,9.950129476e-06,7.879612146e-06,5.349201148e-06,8.902892287e-06,1.357576674e-05,1.806842769e-06,5.103993385e-06,4.128353081e-06,5.785032814e-06,6.493519914e-06,8.442036709e-06,-2.287213842e-07,7.972612717e-06,1.068056874e-05,1.209639250e-05,1.080472320e-05,1.710780508e-05,-8.710310388e-06,2.297880719e-05
-0.045,-9.751963888e-06,-1.343829838e-05,-5.921515930e-06,-6.338198399e-06,-4.415685113e-06,-1.256694057e-05,-6.168916533e-06,-5.046167130e-06,-9.881074089e-07,-5.063716912e-06,-4.814163372e-07,1.172634300e-05,5.596125805e-06,6.862331368e-07,5.394232041e-06,1.216331133e-05,-5.568539566e-06,-3.808909834e-06,-1.552121430e-06,-5.698928642e-07,-8.590456877e-07,9.274820558e-07,-2.978871928e-06,3.129204250e-06,5.441153593e-06,8.549261087e-06,8.750605872e-06,1.601369302e-05,-3.184003606e-06,1.579943150e-05
-0.04,-1.035465781e-05,-1.218595790e-05,-8.729107202e-06,-8.192034620e-06,-9.314354393e-06,-8.865300229e-06,-1.143596984e-05,-8.462478881e-06,-9.238954973e-06,-4.034651607e-06,-8.352880063e-06,8.024873795e-06,-2.373857189e-06,-9.024831905e-06,-4.487624175e-06,3.078317274e-06,-8.833457497e-06,-9.351550715e-06,-7.297460493e-06,-7.527468217e-06,-7.356629770e-06,-7.714083995e-06,-2.490862016e-06,-5.185816260e-06,-1.788820999e-06,1.693517422e-08,4.341955552e-06,8.944900388e-06,-6.089711685e-06,1.997292797e-06
-0.035,-7.050053253e-06,-8.743230392e-06,-9.365816888e-06,-8.999085658e-06,-1.416985913e-05,-8.928251249e-06,-1.219224963e-05,-1.284347957e-05,-1.778502260e-05,-4.061389023e-06,-1.750434115e-05,2.201464077e-06,-1.196110867e-05,-1.832332066e-05,-1.442000839e-05,-7.305792414e-06,-9.167752693e-06,-9.771436544e-06,-1.150188880e-05,-1.298545483e-05,-1.118636598e-05,-1.435714827e-05,-2.265490219e-06,-1.368702427e-05,-8.261848322e-06,-9.112859540e-06,-9.249855045e-07,1.377470608e-06,1.897998286e-05,-4.307392330e-06
-0.03,-5.529212178e-06,-5.984147662e-06,-9.638462877e-06,-9.272036129e-06,-1.666815187e-05,-1.049412446e-05,-9.277934202e-06,-1.580533926e-05,-2.249001604e-05,-6.175884793e-06,-2.324583922e-05,-2.093457934e-06,-1.812613934e-05,-2.194335268e-05,-1.872386317e-05,-1.270863562e-05,-1.048322412e-05,-8.903782874e-06,-1.376600492e-05,-1.615742554e-05,-1.324303143e-05,-1.771078556e-05,-5.364648303e-06,-1.881695981e-05,-1.254507939e-05,-1.456915469e-05,-6.039369298e-06,-3.461224589e-06,1.751553873e-05,-4.095725702e-06
-0.025,-8.914697486e-06,-5.462143406e-06,-1.093457036e-05,-9.381558072e-06,-1.593883911e-05,-8.117237388e-06,-4.085207060e-06,-1.562868405e-05,-2.145558604e-05,-9.838964646e-06,-2.277577795e-05,-3.580358902e-06,-1.826961678e-05,-1.868523530e-05,-1.607954373e-05,-1.090312982e-05,-1.469930970e-05,-1.128797407e-05,-1.446233957e-05,-1.712352784e-05,-1.500642126e-05,-1.812369440e-05,-1.073906321e-05,-1.894356768e-05,-1.440828175e-05,-1.482612756e-05,-9.867679416e-06,-5.152270502e-06,1.009990482e-05,-1.377631168e-05
-0.02,-1.445104497e-05,-6.518597997e-06,-1.252459578e-05,-9.284723401e-06,-1.304518963e-05,-1.186468113e-06,1.326121017e-06,-1.257373295e-05,-1.606284613e-05,-1.216494248e-05,-1.679886403e-05,-2.834495624e-06,-1.295565156e-05,-1.116213333e-05,-8.960846117e-06,-4.051111156e-06,-1.930346435e-05,-1.636018392e-05,-1.362836391e-05,-1.576084232e-05,-1.600462620e-05,-1.605769667e-05,-1.414766799e-05,-1.478613669e-05,-1.371028545e-05,-1.105305242e-05,-1.076807750e-05,-4.112347210e-06,1.554163995e-05,-1.789781612e-05
-0.015,-1.690746107e-05,-7.595959635e-06,-1.279387302e-05,-9.175951025e-06,-1.004802371e-05,4.325014039e-06,4.111530770e-06,-8.498299141e-06,-9.668819313e-06,-1.007201055e-05,-8.556607464e-06,-6.374953922e-07,-4.642848800e-06,-2.925017838e-06,-8.037244291e-07,3.567672063e-06,-2.058468945e-05,-1.926149897e-05,-1.145356300e-05,-1.235850010e-05,-1.463596543e-05,-1.208195261e-05,-1.294734058e-05,-8.698855817e-06,-1.055949210e-05,-5.580644110e-06,-8.027343741e-06,-7.179421490e-07,2.048459082e-05,-1.409443854e-05
-0.01,-1.493134214e-05,-8.488719028e-06,-1.205326446e-05,-1.027863361e-05,-8.906859124e-06,2.373686132e-06,2.627863178e-06,-5.587037028e-06,-5.516496172e-06,-3.984804797e-06,-1.708098649e-06,2.190055482e-06,3.579774969e-06,3.626575716e-06,5.863865463e-06,8.227313539e-06,-1.863122822e-05,-1.731698747e-05,-9.700050454e-06,-9.038046418e-06,-1.127555549e-05,-8.150769369e-06,-9.349314735e-06,-3.629555130e-06,-6.485698634e-06,-6.745699446e-07,-3.600723275e-06,3.761237460e-06,1.078696170e-05,-1.129396150e-05
-0.005,-1.270569287e-05,-1.076650891e-05,-1.293163611e-05,-1.402317492e-05,-1.058253427e-05,-6.328084551e-06,-1.420160540e-06,-5.076636074e-06,-5.110851198e-06,1.453767455e-06,1.471210562e-06,3.958377436e-06,8.781920785e-06,7.347056313e-06,9.586836241e-06,8.501575866e-06,-1.754094414e-05,-1.377957823e-05,-1.114068899e-05,-8.989151388e-06,-9.082522037e-06,-7.256271564e-06,-8.158037732e-06,-1.791132951e-06,-4.234091099e-06,2.042966969e-06,-1.256736226e-06,6.890531849e-06,1.237762418e-05,-2.605672387e-05
0,-1.471846274e-05,-1.541822119e-05,-1.709746624e-05,-1.973525139e-05,-1.420456735e-05,-1.496009714e-05,-4.253780324e-06,-6.451288452e-06,-7.539600092e-06,1.701343915e-06,9.818454577e-07,2.703760542e-06,9.340453754e-06,7.885419349e-06,9.880078202e-06,5.670538091e-06,-2.022099731e-05,-1.384578281e-05,-1.644180853e-05,-1.317246680e-05,-1.075368293e-05,-1.058174677e-05,-1.127421439e-05,-3.287419763e-06,-5.402977913e-06,2.093332780e-06,-3.078291984e-06,6.897927237e-06,1.041978714e-05,-2.915275718e-05
0.005,-1.995277704e-05,-2.037809250e-05,-2.216679970e-05,-2.366689646e-05,-1.700649321e-05,-1.735230231e-05,-4.099472634e-06,-7.628939187e-06,-1.007352245e-05,-2.506683319e-06,-1.145953056e-06,-1.501897626e-06,6.248827923e-06,5.872032107e-06,7.618408754e-06,2.658743796e-06,-2.433462463e-05,-1.798951274e-05,-2.211789099e-05,-1.828606928e-05,-1.505760936e-05,-1.540157952e-05,-1.523499130e-05,-5.887987668e-06,-8.448475618e-06,4.604720549e-07,-6.998630843e-06,4.608803791e-06,1.597081429e-05,-1.974149054e-05
0.01,-2.277684668e-05,-2.149060570e-05,-2.329698108e-05,-2.165729752e-05,-1.603792827e-05,-1.302833946e-05,-3.056605656e-06,-6.499032772e-06,-1.010168314e-05,-5.411963859e-06,-2.333269668e-06,-5.460506429e-06,2.854486485e-06,3.032173982e-06,4.933190864e-06,1.927438283e-06,-2.491143825e-05,-2.128539201e-05,-2.307702625e-05,-1.934922620e-05,-1.779810395e-05,-1.710408082e-05,-1.493932870e-05,-6.813293750e-06,-9.893384932e-06,-1.051631300e-06,-8.607557058e-06,2.772096539e-06,2.320637284e-05,-1.404698157e-05
0.015,-1.969561017e-05,-1.674683996e-05,-1.849996103e-05,-1.353929794e-05,-1.091679793e-05,-6.007228200e-06,-3.995460385e-06,-2.990137478e-06,-7.309324990e-06,-2.511301881e-06,-1.470042053e-06,-5.349882854e-06,2.225039649e-06,1.126953993e-06,3.793158408e-06,3.724364361e-06,-2.074486539e-05,-1.974855405e-05,-1.792357301e-05,-1.486521434e-05,-1.648021688e-05,-1.388994191e-05,-9.704707973e-06,-5.329712897e-06,-7.969429131e-06,-1.375988837e-06,-5.774869640e-06,3.224690448e-06,8.831258019e-06,-2.953400665e-05
0.02,-1.377834834e-05,-9.224774312e-06,-1.157180376e-05,-4.419733951e-06,-4.879084097e-06,-3.871108027e-07,-6.346964293e-06,3.379333826e-07,-4.118707228e-06,3.958537055e-06,1.718560864e-07,-8.272030867e-07,4.289032654e-06,4.372570203e-07,4.407556790e-06,6.213564722e-06,-1.653146744e-05,-1.558487396e-05,-1.103599703e-05,-8.758140900e-06,-1.315030679e-05,-8.878285136e-06,-4.804506446e-06,-3.522484089e-06,-4.704440352e-06,-1.179259674e-06,-1.110542075e-06,5.179364123e-06,1.681092069e-05,-2.161377565e-05
0.025,-1.124010434e-05,-4.803183003e-06,-8.597734092e-06,-5.436658806e-07,-2.299650539e-06,2.006327386e-06,-6.554315310e-06,3.579105322e-07,-3.522898106e-06,6.996855340e-06,2.702304313e-07,4.016267923e-06,6.000437911e-06,-2.647266321e-07,5.392957497e-06,7.455707575e-06,-1.765523725e-05,-1.449933836e-05,-8.387895776e-06,-6.416236790e-06,-1.191423820e-05,-6.836082856e-06,-6.288086205e-06,-4.084461250e-06,-3.842061258e-06,-1.964003594e-06,6.631405011e-07,6.617088566e-06,2.907447451e-05,-1.252455726e-05
0.03,-1.422728507e-05,-6.492476633e-06,-1.148861543e-05,-3.464883193e-06,-4.585741337e-06,9.795854350e-07,-2.920179501e-06,-3.473727074e-06,-6.075302277e-06,2.556370993e-06,-1.977605769e-06,4.647636487e-06,4.851150579e-06,-1.835738390e-06,5.755836014e-06,7.335835824e-06,-2.369433258e-05,-1.837144626e-05,-1.133526276e-05,-8.988775773e-06,-1.410074698e-05,-8.992829361e-06,-1.430139679e-05,-7.192287062e-06,-6.654344245e-06,-3.986533976e-06,-2.226847321e-06,6.968376064e-06,2.348133099e-05,-1.161488592e-05
0.035,-1.852704416e-05,-1.155050639e-05,-1.596385914e-05,-8.731900639e-06,-8.706973981e-06,-2.781403320e-06,1.561752056e-06,-8.155431901e-06,-9.105678167e-06,-5.683164256e-06,-4.677555238e-06,1.044871055e-06,2.039672407e-06,-3.149261309e-06,6.360103570e-06,7.499429266e-06,-2.860450474e-05,-2.264009222e-05,-1.539587979e-05,-1.237094915e-05,-1.687559540e-05,-1.185016949e-05,-2.215291674e-05,-9.887341107e-06,-1.028153416e-05,-5.360554535e-06,-6.577635147e-06,7.795317974e-06,1.292962753e-05,-2.564783717e-05
0.04,-1.888726973e-05,-1.479528256e-05,-1.655472298e-05,-1.075761044e-05,-1.028328423e-05,-7.307771533e-06,2.473217707e-06,-9.820883353e-06,-9.281524517e-06,-1.012041854e-05,-4.989198561e-06,-2.056997652e-06,1.473152966e-06,-2.062896512e-06,8.875960240e-06,9.397604678e-06,-2.756544858e-05,-2.184971689e-05,-1.552805809e-05,-1.204428868e-05,-1.684201526e-05,-1.137478434e-05,-2.255187451e-05,-8.964640295e-06,-1.061346376e-05,-3.754764594e-06,-7.494673013e-06,1.075484097e-05,3.038113145e-05,-2.334998370e-05
0.045,-1.535356497e-05,-1.440651765e-05,-1.294737578e-05,-8.695660195e-06,-8.189075406e-06,-9.811870369e-06,-7.211731063e-07,-7.595207898e-06,-6.109741469e-06,-7.376120771e-06,-2.231140980e-06,-2.683281532e-07,5.333722409e-06,1.737022566e-06,1.321602414e-05,1.251345646e-05,-2.242095514e-05,-1.647303697e-05,-1.185649635e-05,-8.217324620e-06,-1.415211956e-05,-7.738533148e-06,-1.484495150e-05,-4.557133327e-06,-6.742830275e-06,7.967515438e-07,-3.546739181e-06,1.538925483e-05,2.684856414e-05,-1.337406045e-05
0.05,-1.295088171e-05,-1.350160864e-05,-1.024195953e-05,-6.896684127e-06,-5.696856410e-06,-9.178331548e-06,-4.367458714e-06,-4.529285902e-06,-2.715218368e-06,-1.493438410e-06,1.000654043e-06,5.590444461e-06,1.114848519e-05,5.392631041e-06,1.660255425e-05,1.462327717e-05,-1.937340079e-05,-1.248783970e-05,-9.264834202e-06,-5.458624897e-06,-1.224459309e-05,-5.187581598e-06,-5.790789783e-06,-5.647253544e-07,-2.197748908e-06,5.087944372e-06,1.654769495e-06,1.931875354e-05,2.765955879e-05,-1.220291042e-05
0.055,-1.534223934e-05,-1.577788486e-05,-1.280884826e-05,-9.552227991e-06,-6.810258155e-06,-7.695490582e-06,-5.762271562e-06,-4.404154838e-06,-2.879444245e-06,1.219627974e-06,1.208283905e-06,1.044884016e-05,1.398848873e-05,5.188711421e-06,1.585858038e-05,1.383847072e-05,-2.186061863e-05,-1.424550579e-05,-1.149626243e-05,-7.423327015e-06,-1.373429120e-05,-7.259733344e-06,-2.949914114e-06,-1.148833591e-06,-1.499829619e-06,5.311042701e-06,3.107102251e-06,2.049020719e-05,1.564410577e-05,-1.493509684e-05
0.06,-2.036141606e-05,-2.063676372e-05,-1.898459790e-05,-1.564032067e-05,-1.173522972e-05,-8.764649481e-06,-6.681906901e-06,-7.703807626e-06,-7.230300528e-06,-6.590472824e-07,-2.394853708e-06,1.072836591e-05,1.164566947e-05,4.908199969e-07,1.076589089e-05,1.039263669e-05,-2.699067034e-05,-1.940720957e-05,-1.674526179e-05,-1.273970418e-05,-1.741226575e-05,-1.276111830e-05,-7.371699820e-06,-6.609207184e-06,-5.515423668e-06,7.791801088e-07,-5.146276769e-07,1.892769809e-05,2.057135808e-05,-2.256682871e-05
0.065,-2.271070796e-05,-2.371741543e-05,-2.280252806e-05,-1.980709493e-05,-1.641024059e-05,-1.234520895e-05,-1.023404753e-05,-1.110842365e-05,-1.245983435e-05,-2.891677985e-06,-6.871073299e-06,8.182959197e-06,6.987089380e-06,-5.070109153e-06,4.723844027e-06,6.418513722e-06,-2.926585557e-05,-2.192610464e-05,-1.971815203e-05,-1.648061521e-05,-1.964177268e-05,-1.684101828e-05,-1.297882691e-05,-1.279219378e-05,-1.038601134e-05,-5.026747859e-06,-5.578701073e-06,1.629238167e-05,2.115556693e-05,-1.860245499e-05
0.07,-2.019750947e-05,-2.202453040e-05,-2.059734146e-05,-1.800834218e-05,-1.654490538e-05,-1.394247876e-05,-1.521371478e-05,-1.108739460e-05,-1.438142990e-05,-1.592525031e-06,-8.406036357e-06,7.305458679e-06,4.668416827e-06,-6.928682319e-06,1.624945663e-06,3.911443541e-06,-2.673012105e-05,-1.908537722e-05,-1.745988466e-05,-1.523443780e-05,-1.817544437e-05,-1.577708991e-05,-1.311834058e-05,-1.477104994e-05,-1.119782645e-05,-7.490436162e-06,-7.221509835e-06,1.405758040e-05,2.081205261e-05,-1.287794907e-05
0.075,-1.586687981e-05,-1.725839907e-05,-1.473912815e-05,-1.153515946e-05,-1.177906677e-05,-9.544262307e-06,-1.617045898e-05,-7.682820614e-06,-1.173577069e-05,1.666124595e-06,-6.135893365e-06,9.406375776e-06,5.846714085e-06,-4.173571079e-06,2.081034596e-06,2.829368134e-06,-2.248691297e-05,-1.404691951e-05,-1.217112874e-05,-1.015566302e-05,-1.404381686e-05,-1.033782459e-05,-7.374230331e-06,-1.128619156e-05,-6.751908116e-06,-5.162762559e-06,-4.156841656e-06,1.233049133e-05,2.239364161e-05,-1.855865039e-05
0.08,-1.386879941e-05,-1.344565665e-05,-1.046345125e-05,-5.246845092e-06,-5.696192209e-06,-1.247832943e-06,-1.012429612e-05,-4.373037510e-06,-6.990506448e-06,1.875923704e-06,-2.883017796e-06,1.058075080e-05,6.992196577e-06,-3.953923117e-07,3.112245757e-06,1.240884760e-06,-2.060823949e-05,-1.142710942e-05,-8.248844743e-06,-5.184573604e-06,-9.965283091e-06,-4.585228688e-06,-1.616456190e-06,-5.637360805e-06,-6.834832650e-07,-9.755810369e-07,3.414303231e-07,1.033665770e-05,2.171782999e-05,-2.674198731e-05
0.085,-1.459276112e-05,-1.218083499e-05,-9.976423307e-06,-2.487753791e-06,-2.084903960e-06,3.708358558e-06,-1.489462778e-06,-4.238144715e-06,-3.567060533e-06,-2.969542023e-06,-1.973247503e-06,6.264194637e-06,4.263871984e-06,3.223652749e-07,1.758844428e-06,-2.452167644e-06,-2.177754142e-05,-1.190697841e-05,-7.536726994e-06,-3.000083066e-06,-7.686238736e-06,-1.892183840e-06,-1.483241240e-06,-2.243201181e-06,2.142155730e-06,9.491031366e-07,2.118821295e-06,7.807601110e-06,2.322955535e-05,-1.350416236e-05
0.09,-1.492781617e-05,-1.148585143e-05,-1.077004670e-05,-2.441547982e-06,-1.641626057e-06,4.787802896e-07,1.931564133e-06,-6.669567896e-06,-2.533107079e-06,-9.051612877e-06,-3.563840682e-06,-2.868422888e-06,-1.592816780e-06,-2.040510856e-06,-1.336620427e-06,-7.324434701e-06,-2.332515952e-05,-1.227594312e-05,-8.186725045e-06,-3.068746020e-06,-7.106002060e-06,-2.312462397e-06,-6.385130386e-06,-2.393768604e-06,3.093813455e-07,-4.208701598e-07,4.749243537e-07,5.757168847e-06,2.383592982e-05,-7.394658245e-06
0.095,-1.264018408e-05,-9.270303444e-06,-9.501337481e-06,-2.240037967e-06,-2.269400097e-06,-7.626951858e-06,-2.154793778e-06,-8.157018454e-06,-2.092854021e-06,-1.093712564e-05,-4.499122830e-06,-1.077847326e-05,-5.620149513e-06,-3.451446193e-06,-2.488544856e-06,-1.018499864e-05,-2.261096531e-05,-9.972017515e-06,-7.630916292e-06,-3.124443467e-06,-7.272407518e-06,-3.364075229e-06,-1.037399381e-05,-3.433732881e-06,-3.031328292e-06,-2.197892774e-06,-1.413787770e-06,5.811535850e-06,2.705037676e-05,-2.062307926e-05
0.1,-8.934164854e-06,-6.435620071e-06,-6.163885402e-06,-6.217411962e-07,-1.942017931e-06,-1.222542888e-05,-7.659313649e-06,-6.149313600e-06,-6.546170511e-08,-7.623501482e-06,-1.864456133e-06,-1.216608032e-05,-4.022100737e-06,-4.909445564e-07,7.908684304e-07,-8.457954220e-06,-1.943445248e-05,-5.958137631e-06,-5.500148794e-06,-1.726551294e-06,-7.355706073e-06,-2.719100600e-06,-8.717053758e-06,-1.981053596e-06,-3.529499359e-06,-1.010860134e-06,-2.516087189e-07,8.632688772e-06,3.486404382e-05,-2.218267452e-05
0.105,-6.285461622e-06,-5.543552348e-06,-3.619574186e-06,1.158486618e-06,-6.791267299e-07,-8.774162376e-06,-7.318430421e-06,-1.718910726e-06,3.549271079e-06,-3.191968249e-06,3.675509952e-06,-7.879110303e-06,1.600669865e-06,5.565798784e-06,6.636469191e-06,-2.968651264e-06,-1.545206920e-05,-2.821843439e-06,-3.308859238e-06,7.965117336e-07,-6.664879189e-06,-9.683175340e-09,-2.915433653e-06,2.388965749e-06,1.351739119e-07,3.170920572e-06,3.700828490e-06,1.294838252e-05,2.616250671e-05,-1.096853884e-05
0.11,-5.082465163e-06,-7.170604064e-06,-3.774198150e-06,1.519727808e-06,1.667147169e-07,-1.315417562e-06,-1.545791995e-06,1.732927041e-06,6.626948430e-06,-1.619299885e-06,8.430016263e-06,-3.460905374e-06,6.034582841e-06,9.963089730e-06,1.054203791e-05,2.484863873e-06,-1.237908806e-05,-1.417710389e-06,-2.221394494e-06,3.243751802e-06,-4.601047556e-06,3.441653849e-06,1.187348753e-06,6.864221917e-06,5.404187847e-06,7.099210940e-06,7.105186248e-06,1.639058610e-05,1.825279163e-05,-3.785135516e-06
0.115,-3.832607279e-06,-9.104427393e-06,-5.593026481e-06,5.461341264e-07,-1.484201557e-07,2.258978046e-06,1.907991465e-06,2.082778131e-06,7.262171322e-06,-2.330288006e-06,9.464426810e-06,-2.727384463e-06,6.150484153e-06,9.682203192e-06,1.023959684e-05,4.768807988e-06,-1.119612115e-05,-5.939017145e-07,-2.146700113e-06,4.656053310e-06,-1.331960120e-06,6.016538638e-06,-1.251168863e-07,8.546754469e-06,8.812405216e-06,8.005853543e-06,7.500915901e-06,1.767058601e-05,2.277042672e-05,-1.547538988e-05
0.12,-2.359870747e-06,-9.424315184e-06,-7.142463472e-06,-6.081727491e-07,-1.063105538e-06,-1.182734962e-06,-2.737131054e-06,3.918076625e-07,5.641500512e-06,-1.818076883e-06,7.387788450e-06,-3.995158219e-06,3.911771276e-06,6.706439215e-06,8.219718983e-06,4.561828550e-06,-1.224940535e-05,3.110554539e-07,-2.839909487e-06,4.574373044e-06,1.667873000e-06,6.814058029e-06,-4.597680846e-06,7.353851334e-06,9.246662809e-06,6.629686532e-06,6.085076286e-06,1.795290220e-05,2.960460986e-05,-1.383996167e-05
0.125,-3.024266595e-06,-9.067365648e-06,-8.393083924e-06,-1.613797022e-06,-1.778703548e-06,-7.303721974e-06,-1.218424977e-05,-7.628843069e-07,3.476144998e-06,1.046395147e-06,5.172989182e-06,-3.142615322e-06,3.394567803e-06,5.561626110e-06,8.824519922e-06,5.388725227e-06,-1.506521024e-05,2.652910228e-07,-4.744371041e-06,2.854389035e-06,2.499109933e-06,5.746053559e-06,-6.768730884e-06,5.541694417e-06,8.142541830e-06,6.025372566e-06,6.066393237e-06,1.964474517e-05,3.102333666e-05,-8.444347847e-06
0.13,-7.645642642e-06,-1.025887231e-05,-1.084679262e-05,-3.369832596e-06,-2.410994283e-06,-9.979928282e-06,-1.762430047e-05,-3.561129340e-07,1.944692792e-06,2.947220825e-06,4.638450344e-06,6.690119827e-07,5.669171270e-06,8.018410189e-06,1.308957997e-05,9.317900611e-06,-1.808538277e-05,-1.618946660e-06,-8.049302605e-06,-2.193290628e-07,6.908501187e-07,3.212809333e-06,-3.904899458e-06,4.793030556e-06,7.103739573e-06,7.734147200e-06,8.602715717e-06,2.348619783e-05,2.107414790e-05,-4.216980758e-06
0.135,-1.402338698e-05,-1.306676692e-05,-1.470171318e-05,-6.432179241e-06,-3.689188575e-06,-8.169990754e-06,-1.456331964e-05,1.857014440e-07,7.000127596e-07,1.123629554e-07,4.800168359e-06,3.839317584e-06,7.797559993e-06,1.119365781e-05,1.732942593e-05,1.413196669e-05,-1.953354136e-05,-4.132285730e-06,-1.146482736e-05,-3.667086348e-06,-2.067125005e-06,-5.853773198e-08,1.488543660e-06,4.549022066e-06,6.209434214e-06,1.001920594e-05,1.125518554e-05,2.712486130e-05,2.709377611e-05,-2.046734008e-05
0.14,-1.719270830e-05,-1.506465847e-05,-1.774860697e-05,-9.725255569e-06,-5.668764956e-06,-6.117086952e-06,-7.313492325e-06,-8.632017673e-07,-1.005929968e-06,-6.437724990e-06,3.861748466e-06,3.064703959e-06,7.006454268e-06,1.125990085e-05,1.727871826e-05,1.546300028e-05,-1.916067315e-05,-5.082240711e-06,-1.296502677e-05,-6.093619563e-06,-3.488002188e-06,-3.032485321e-06,4.820808994e-06,3.450620557e-06,4.826706604e-06,1.024208173e-05,1.088511843e-05,2.721197729e-05,2.497618826e-05,-3.425381733e-05
0.145,-1.468462840e-05,-1.470327421e-05,-1.781090421e-05,-1.136198500e-05,-7.193560990e-06,-7.481974509e-06,-3.447699306e-06,-3.014759269e-06,-2.724886869e-06,-1.096829573e-05,2.111070612e-06,-1.660117556e-07,4.653363626e-06,8.235715565e-06,1.304883991e-05,1.170904648e-05,-1.877228637e-05,-4.183199779e-06,-1.201561181e-05,-6.603266936e-06,-3.061311839e-06,-4.655816497e-06,4.093096052e-06,1.713187400e-06,3.230773444e-06,8.277062763e-06,7.484448972e-06,2.308586344e-05,3.493765220e-05,-1.236998676e-05
0.15,-9.493485897e-06,-1.356133645e-05,-1.558890394e-05,-1.058250369e-05,-6.928378893e-06,-1.095355644e-05,-5.468283388e-06,-3.781974353e-06,-2.985500537e-06,-8.836126305e-06,1.888527864e-06,-1.182444292e-06,4.816518894e-06,5.966741756e-06,9.011077903e-06,6.046242235e-06,-2.036297339e-05,-3.626609993e-06,-1.042194361e-05,-5.553824007e-06,-2.580354877e-06,-4.536283128e-06,9.688555087e-07,1.085787739e-06,2.430366907e-06,6.572244377e-06,4.213106494e-06,1.782429818e-05,3.231885139e-05,2.604559449e-06
0.155,-6.753604585e-06,-1.399345689e-05,-1.399448450e-05,-8.435581951e-06,-4.886771031e-06,-1.233419276e-05,-9.406375232e-06,-1.511845191e-06,-1.212415340e-06,-1.620648603e-06,4.492909293e-06,1.978997768e-06,9.035895066e-06,7.229989932e-06,8.642204934e-06,3.027326718e-06,-2.367002193e-05,-5.190369945e-06,-1.040715165e-05,-4.358962517e-06,-4.081500260e-06,-3.459314319e-06,-1.982939347e-06,2.299312387e-06,2.426229275e-06,6.780587540e-06,3.585728916e-06,1.512375136e-05,3.214950876e-05,-8.236014570e-06
0.16,-7.902157768e-06,-1.532588846e-05,-1.463057632e-05,-6.550667594e-06,-2.731774621e-06,-9.972188366e-06,-1.091333962e-05,2.388242644e-06,1.002601423e-06,4.239703104e-06,7.906820786e-06,5.773758107e-06,1.373211450e-05,9.984966744e-06,1.049699473e-05,3.687487188e-06,-2.607202723e-05,-7.547349984e-06,-1.211175805e-05,-4.429226781e-06,-7.350859004e-06,-2.992129316e-06,-3.767511165e-06,3.465569956e-06,1.725323870e-06,7.420827562e-06,4.627216776e-06,1.546208221e-05,2.637404908e-05,-1.922637405e-05
0.165,-9.572839065e-06,-1.439863746e-05,-1.596071272e-05,-5.716938447e-06,-2.405694682e-06,-6.790057997e-06,-1.057196882e-05,4.508872805e-06,1.154198205e-06,3.896225400e-06,8.520996524e-06,5.185862188e-06,1.386871122e-05,9.650239077e-06,1.031526658e-05,5.004037714e-06,-2.522548177e-05,-7.494052823e-06,-1.362000682e-05,-6.103032865e-06,-9.729326370e-06,-4.161292643e-06,-4.432166114e-06,2.015441570e-06,-5.392485362e-07,5.903564664e-06,4.699313017e-06,1.621324331e-05,2.927227917e-05,-1.276603831e-05
0.17,-8.765208931e-06,-1.055141226e-05,-1.564914515e-05,-5.889121095e-06,-4.387200256e-06,-6.794370727e-06,-1.210773103e-05,2.823960086e-06,-1.480857672e-06,-1.326120903e-06,5.238661966e-06,-7.607606820e-08,8.883227148e-06,5.003097392e-06,6.887829664e-06,4.333481813e-06,-2.163106439e-05,-3.839558894e-06,-1.347823934e-05,-8.374294117e-06,-8.528686655e-06,-6.291123616e-06,-3.364721339e-06,-1.763620596e-06,-2.405180124e-06,2.619331017e-06,3.731211617e-06,1.574799748e-05,3.488898349e-05,4.802877033e-07
0.175,-7.690412616e-06,-8.341533738e-06,-1.404030935e-05,-7.054383328e-06,-7.238860630e-06,-1.052891901e-05,-1.649633651e-05,-1.195327195e-06,-4.712538396e-06,-5.872436478e-06,1.185047355e-06,-4.760775871e-06,3.883286178e-06,5.767303483e-07,4.466549593e-06,3.254138250e-06,-1.833190433e-05,8.551381442e-07,-1.247261417e-05,-9.583165362e-06,-3.636454531e-06,-7.305701418e-06,3.368253508e-07,-4.062135260e-06,-2.590340935e-07,1.699070490e-06,5.207447247e-06,1.637587981e-05,2.267615321e-05,-1.199222766e-05
0.18,-1.145951139e-05,-1.307265636e-05,-1.396594051e-05,-9.262709512e-06,-8.813207158e-06,-1.462627748e-05,-1.975818755e-05,-3.996834806e-06,-5.359451717e-06,-5.873125209e-06,7.230257172e-07,-3.844625470e-06,4.399133014e-06,2.189357598e-06,8.292490362e-06,5.789273674e-06,-1.801081945e-05,2.971044807e-06,-1.236163305e-05,-8.577087238e-06,2.274693623e-06,-5.537470027e-06,5.681434645e-06,-1.219764147e-06,7.060527963e-06,6.752141234e-06,1.203122303e-05,2.191794698e-05,1.946833826e-05,-1.313139034e-05
0.185,-2.044075659e-05,-2.336128909e-05,-1.657733181e-05,-1.156986643e-05,-7.913254185e-06,-1.539403723e-05,-1.722911853e-05,-3.319856333e-06,-2.341802413e-06,-2.496634381e-06,4.882968413e-06,1.789371794e-06,1.046494635e-05,1.032006278e-05,1.805253918e-05,1.290904702e-05,-2.018887751e-05,1.878454473e-06,-1.316113335e-05,-5.520199448e-06,6.093221348e-06,-1.409763328e-06,9.347322203e-06,6.067559639e-06,1.588151623e-05,1.617709726e-05,2.196488114e-05,3.224948982e-05,2.475960727e-05,-4.840709017e-06
0.19,-2.642043935e-05,-2.992537118e-05,-1.820995448e-05,-1.158847572e-05,-4.912435504e-06,-1.203896403e-05,-9.135765102e-06,5.746669076e-08,2.301700167e-06,4.059701445e-07,1.027824831e-05,6.342158774e-06,1.662420512e-05,1.888690375e-05,2.694831914e-05,2.008314571e-05,-2.076084276e-05,7.745963314e-07,-1.246885632e-05,-1.713482279e-06,6.892061856e-06,2.813971912e-06,8.691352524e-06,1.289131549e-05,2.045688710e-05,2.373790804e-05,2.850640201e-05,4.147953636e-05,1.322614012e-05,-1.224775450e-05
0.195,-1.832694897e-05,-2.336260295e-05,-1.263597220e-05,-6.949031134e-06,-9.931731708e-07,-6.395474309e-06,-9.385655042e-07,3.767255461e-06,5.490822908e-06,1.010651265e-06,1.268896661e-05,5.442814065e-06,1.767617884e-05,2.105197490e-05,2.789895301e-05,2.128923243e-05,-1.406717027e-05,3.690389103e-06,-7.788229545e-06,1.505146263e-06,6.450076840e-06,5.161591401e-06,5.020917684e-06,1.478113573e-05,1.843201627e-05,2.428808379e-05,2.693336607e-05,4.278060244e-05,-3.261915500e-06,2.640611604e-05
0.2,7.571388511e-06,-3.026687564e-06,3.090325097e-06,2.469797092e-06,3.009370759e-06,-4.136454580e-07,1.953425068e-06,6.481849484e-06,6.003321938e-06,1.033153014e-06,1.127060918e-05,4.286398987e-07,1.362014203e-05,1.579617993e-05,2.028314585e-05,1.516665151e-05,3.727499261e-06,1.222219773e-05,8.971565957e-07,3.889097114e-06,7.408437920e-06,5.846094532e-06,2.720548324e-06,1.189566733e-05,1.305745290e-05,1.855113049e-05,1.900542168e-05,3.509617772e-05,4.541237094e-05,5.787284621e-05
0.205,4.384336521e-05,2.271314294e-05,2.539479697e-05,1.403769796e-05,6.992291256e-06,5.351820440e-06,-5.814891924e-07,8.689330855e-06,5.234908688e-06,2.701442906e-06,8.836349625e-06,-4.028862972e-06,8.611047685e-06,8.276729674e-06,1.002147039e-05,6.292009321e-06,3.178501191e-05,2.507436585e-05,1.128111759e-05,6.394244231e-06,1.094644104e-05,6.907117449e-06,4.534822284e-06,8.316028485e-06,9.594780084e-06,1.185756175e-05,1.106863231e-05,2.430543408e-05,3.351236438e-05,1.090735860e-04
0.21,7.882524539e-05,4.498163367e-05,4.718438824e-05,2.447651820e-05,1.108687851e-05,1.113877985e-05,-3.439259585e-06,1.116633081e-05,5.382221302e-06,5.315440898e-06,8.333050521e-06,-5.542644156e-06,5.871101976e-06,4.087120919e-06,3.333626132e-06,2.106678793e-07,6.445360497e-05,3.981788721e-05,2.124389324e-05,1.014336471e-05,1.609140108e-05,9.985096018e-06,8.324638372e-06,7.565642156e-06,9.972680725e-06,8.560880239e-06,7.726684135e-06,1.740592189e-05,4.588372724e-05,1.677364206e-04
0.215,1.070198878e-04,6.221934094e-05,6.408301464e-05,3.263373687e-05,1.519629136e-05,1.694395144e-05,-1.295806965e-06,1.358109303e-05,7.327109605e-06,5.892608783e-06,9.856861816e-06,-6.048538787e-06,4.805309392e-06,4.086044286e-06,1.284199383e-06,-1.951422768e-06,9.503171308e-05,5.438074120e-05,3.067182013e-05,1.530624628e-05,2.103275949e-05,1.468510988e-05,9.325883104e-06,9.502207075e-06,1.164548710e-05,8.436417185e-06,8.056955398e-06,1.603331503e-05,7.564913974e-05,2.333571707e-04
0.22,1.320748636e-04,7.938767270e-05,7.762433268e-05,4.021277501e-05,1.928934622e-05,2.271899039e-05,6.396283285e-06,1.525091052e-05,1.041421724e-05,3.322016740e-06,1.146591188e-05,-8.346464550e-06,3.246349615e-06,5.090531567e-06,5.923396536e-07,-3.353633177e-06,1.212798250e-04,6.738089158e-05,4.070848002e-05,2.106824733e-05,2.485613528e-05,1.928778293e-05,5.470677030e-06,1.165536169e-05,1.147111196e-05,8.515209777e-06,8.006077385e-06,1.611283979e-05,8.448987840e-05,3.088879754e-04
0.225,1.599988318e-04,1.007416933e-04,9.251940115e-05,4.981643846e-05,2.397917060e-05,2.922824958e-05,1.495282107e-05,1.695131304e-05,1.384197524e-05,9.098407104e-07,1.225884963e-05,-1.199644788e-05,1.297227239e-06,4.615926303e-06,-1.361873833e-06,-6.641333252e-06,1.473643141e-04,7.830860173e-05,5.172211612e-05,2.659475586e-05,2.784269314e-05,2.280349302e-05,-4.418218078e-07,1.271715303e-05,9.521794332e-06,7.310541636e-06,5.401320328e-06,1.328319093e-05,1.033817408e-04,3.506886847e-04
0.23,1.910721837e-04,1.247346074e-04,1.111382187e-04,6.222652459e-05,3.025680892e-05,3.782290580e-05,1.882851682e-05,2.090829551e-05,1.761511307e-05,3.639520350e-06,1.361108983e-05,-1.376924583e-05,1.592431017e-06,3.612601376e-06,-3.690139684e-06,-1.061149773e-05,1.788382114e-04,8.794767922e-05,6.245443638e-05,3.169766360e-05,3.017539088e-05,2.580565612e-05,-4.226496445e-06,1.374501419e-05,8.247878613e-06,6.126378892e-06,1.616572627e-06,7.544714430e-06,1.346924099e-04,4.228633121e-04
0.235,2.196249567e-04,1.457173487e-04,1.306932369e-04,7.534137910e-05,3.817039784e-05,4.877922486e-05,1.689236731e-05,2.822370105e-05,2.190679845e-05,1.254777348e-05,1.705841390e-05,-1.182061245e-05,5.661358952e-06,4.361429396e-06,-4.127924422e-06,-1.208557302e-05,2.145260964e-04,9.785952500e-05,7.099625584e-05,3.633200958e-05,3.080586022e-05,2.905787678e-05,-5.181227982e-06,1.596021665e-05,8.508298706e-06,6.392142965e-06,-1.283287906e-06,2.328796180e-06,1.478612652e-04,4.871176155e-04
0.24,2.410960096e-04,1.591602990e-04,1.455293031e-04,8.555169659e-05,4.584526010e-05,5.995807272e-05,1.381297933e-05,3.657867573e-05,2.591745918e-05,2.248873937e-05,2.167745471e-05,-8.140731882e-06,1.117126366e-05,6.830088516e-06,-2.650346335e-06,-1.014747675e-05,2.443108857e-04,1.084164838e-04,7.618336186e-05,3.971959371e-05,2.822534850e-05,3.182046658e-05,-6.537487061e-06,1.839059995e-05,7.939473619e-06,7.049286661e-06,-3.525202430e-06,6.433830779e-08,1.703712437e-04,5.433833767e-04
0.245,2.572858872e-04,1.647719652e-04,1.520989825e-04,9.040012959e-05,5.045650515e-05,6.769438152e-05,1.597304732e-05,4.149328163e-05,2.805898484e-05,2.644935206e-05,2.451406375e-05,-6.216122187e-06,1.383577863e-05,8.322485785e-06,-1.782136664e-06,-7.368560401e-06,2.571926670e-04,1.173243240e-04,7.815174697e-05,4.066071516e-05,2.268646191e-05,3.230855319e-05,-1.116210370e-05,1.863751112e-05,4.024357449e-06,5.637015407e-06,-6.818068950e-06,-1.651114158e-07,1.971950403e-04,5.906785897e-04
0.25,2.733955886e-04,1.659972792e-04,1.521380732e-04,9.058247734e-05,5.082647396e-05,6.968711334e-05,2.535013988e-05,4.060244325e-05,2.763253081e-05,2.246761489e-05,2.384627473e-05,-6.907645122e-06,1.201792933e-05,6.779859769e-06,-3.488876154e-06,-6.811550498e-06,2.526223497e-04,1.210258127e-04,7.820028108e-05,3.917497520e-05,1.730984102e-05,3.012920905e-05,-1.784363140e-05,1.595004311e-05,-1.964103958e-06,1.714835972e-06,-1.120786916e-05,-7.063620713e-07,2.062804771e-04,6.752198006e-04
0.255,2.907738576e-04,1.679829747e-04,1.514153637e-04,8.979821350e-05,4.912250293e-05,6.742661555e-05,3.724426791e-05,3.654806930e-05,2.612909658e-05,1.590035044e-05,2.147805880e-05,-7.636344887e-06,8.644576993e-06,3.512588741e-06,-6.808805602e-06,-8.771063362e-06,2.427643539e-04,1.182839513e-04,7.844605055e-05,3.753422366e-05,1.610366517e-05,2.773532480e-05,-2.254171541e-05,1.277081628e-05,-5.397545647e-06,-1.869111490e-06,-1.416429280e-05,-2.310079855e-06,2.325546037e-04,6.922070605e-04
0.26,3.046794614e-04,1.752582987e-04,1.551189019e-04,9.224606342e-05,4.943279359e-05,6.568390075e-05,4.453449520e-05,3.497187576e-05,2.636574054e-05,1.433484125e-05,2.120322042e-05,-5.732974766e-06,8.103154735e-06,1.982410469e-06,-9.068926269e-06,-1.103437147e-05,2.418978584e-04,1.121503960e-04,8.094682849e-05,3.880822166e-05,2.012619331e-05,2.858331871e-05,-2.291376722e-05,1.262878898e-05,-3.145895858e-06,-1.739093372e-06,-1.343829344e-05,-3.763442595e-06,2.516379770e-04,6.304912476e-04
0.265,3.102346059e-04,1.888187224e-04,1.636101110e-04,9.929492900e-05,5.407184804e-05,6.901410571e-05,4.458716447e-05,3.922447484e-05,2.994278303e-05,2.024024256e-05,2.494296412e-05,-1.748537747e-06,1.159690214e-05,4.108394672e-06,-8.873667583e-06,-1.177766643e-05,2.533692907e-04,1.077257676e-04,8.605881419e-05,4.375825143e-05,2.558684680e-05,3.343122837e-05,-2.080410158e-05,1.653240585e-05,2.603175866e-06,2.308846729e-06,-1.018347498e-05,-3.962334901e-06,2.669432349e-04,7.418486449e-04
0.27,3.094518995e-04,2.040412290e-04,1.721234982e-04,1.080224058e-04,6.120238593e-05,7.803403016e-05,4.169527432e-05,4.716754160e-05,3.549696976e-05,2.898244805e-05,3.073255819e-05,1.189476229e-06,1.611346422e-05,8.364696097e-06,-7.190617797e-06,-1.129560776e-05,2.678539369e-04,1.076849018e-04,9.134091533e-05,4.934202829e-05,2.642894516e-05,3.882213910e-05,-2.021721719e-05,2.177784545e-05,6.086379084e-06,6.931282484e-06,-8.302720685e-06,-3.312372245e-06,2.895754424e-04,7.458967367e-04
0.275,3.102740740e-04,2.129100783e-04,1.749289526e-04,1.133690984e-04,6.643844561e-05,8.878968055e-05,4.225080720e-05,5.342175987e-05,3.966432514e-05,3.408336892e-05,3.467864032e-05,9.475917684e-07,1.790161815e-05,1.156654569e-05,-5.742107775e-06,-1.090904843e-05,2.742642887e-04,1.100840283e-04,9.291888617e-05,5.101209121e-05,1.955910519e-05,3.992110923e-05,-2.357331104e-05,2.442424712e-05,3.527857882e-06,8.539800859e-06,-1.058192417e-05,-2.958910971e-06,3.096255305e-04,7.650817350e-04
0.28,3.177317857e-04,2.108753804e-04,1.705309322e-04,1.125279818e-04,6.703269035e-05,9.600136318e-05,4.773666710e-05,5.465746260e-05,3.999742793e-05,3.382644890e-05,3.469097005e-05,-1.477210996e-06,1.632037582e-05,1.196989919e-05,-5.293017109e-06,-1.116667908e-05,2.704978724e-04,1.104170032e-04,8.895974201e-05,4.699916702e-05,7.787537045e-06,3.518497794e-05,-3.033889438e-05,2.279726130e-05,-3.461031601e-06,6.498824712e-06,-1.607174108e-05,-3.534332803e-06,3.475579368e-04,7.985836868e-04
0.285,3.270416782e-04,2.021806224e-04,1.630770252e-04,1.075500401e-04,6.433531681e-05,9.738240288e-05,5.325675100e-05,5.236608250e-05,3.703052139e-05,3.211414371e-05,3.206519761e-05,-3.513554282e-06,1.387758033e-05,1.024824878e-05,-5.942350237e-06,-1.184311855e-05,2.622500860e-04,1.053943965e-04,8.188256767e-05,4.019139287e-05,-2.664450003e-06,2.799690345e-05,-3.865318347e-05,1.853069445e-05,-1.009251234e-05,2.873931602e-06,-2.161928481e-05,-5.326007420e-06,3.599653294e-04,8.021392369e-04
0.29,3.271311387e-04,1.966610800e-04,1.582959271e-04,1.032743074e-04,6.189476466e-05,9.501739591e-05,5.320124681e-05,5.045586704e-05,3.344824402e-05,3.314935246e-05,2.955886920e-05,-3.980738704e-06,1.290912683e-05,7.840668939e-06,-8.323335274e-06,-1.323938546e-05,2.531350939e-04,9.476004288e-05,7.635089065e-05,3.533865637e-05,-7.934051123e-06,2.330068766e-05,-4.725520407e-05,1.444192267e-05,-1.352553313e-05,-4.689563656e-07,-2.552412157e-05,-9.136660634e-06,3.798708834e-04,7.900454901e-04
0.295,3.117095940e-04,1.996023822e-04,1.576736376e-04,1.022968683e-04,6.128781474e-05,9.253748747e-05,4.753909898e-05,5.066097064e-05,3.122251714e-05,3.638695989e-05,2.836732726e-05,-3.846246717e-06,1.304453092e-05,5.158519029e-06,-1.334312954e-05,-1.638363089e-05,2.398100963e-04,8.039922136e-05,7.452247689e-05,3.425196753e-05,-9.955314585e-06,2.256845310e-05,-5.564901350e-05,1.171122829e-05,-1.539064208e-05,-3.802348057e-06,-2.901135134e-05,-1.580724906e-05,3.985170979e-04,8.336516648e-04
0.3,2.863160877e-04,2.053013390e-04,1.567834631e-04,1.021496118e-04,6.033468759e-05,9.110496920e-05,4.164665638e-05,5.087601806e-05,2.969263223e-05,3.749206485e-05,2.726988889e-05,-4.280376032e-06,1.225959810e-05,1.768346406e-06,-2.041172219e-05,-2.147043391e-05,2.186051512e-04,6.482524771e-05,7.362364567e-05,3.404811272e-05,-1.412347636e-05,2.239245397e-05,-6.323937677e-05,9.198171683e-06,-1.939640762e-05,-8.434340891e-06,-3.404395073e-05,-2.442110596e-05,4.179554598e-04,7.998508814e-04
0.305,2.637010698e-04,2.024597687e-04,1.497695868e-04,9.793506302e-05,5.574997796e-05,8.852391049e-05,4.025016280e-05,4.799010127e-05,2.661944005e-05,3.380507941e-05,2.456463132e-05,-4.857922539e-06,9.893547951e-06,-2.092407898e-06,-2.664978800e-05,-2.664098092e-05,1.944618175e-04,5.058236722e-05,6.888669439e-05,3.040832222e-05,-2.350963131e-05,1.828546835e-05,-6.911440780e-05,5.302672800e-06,-2.690088864e-05,-1.416728529e-05,-4.026349502e-05,-3.163811682e-05,4.340761533e-04,8.069663270e-04
0.31,2.522494650e-04,1.865056489e-04,1.355458631e-04,8.786703713e-05,4.729721592e-05,8.242292775e-05,4.275311889e-05,4.179823620e-05,2.110650198e-05,2.766256716e-05,2.040308526e-05,-4.237508749e-06,7.825759046e-06,-4.869244055e-06,-2.869531201e-05,-2.906433218e-05,1.790826813e-04,3.988125433e-05,5.892995842e-05,2.243341012e-05,-3.542261362e-05,9.740839258e-06,-7.259968981e-05,2.459447031e-07,-3.503158179e-05,-1.844823571e-05,-4.461069675e-05,-3.373321922e-05,4.453895409e-04,8.598642432e-04
0.315,2.493506794e-04,1.652959679e-04,1.192852694e-04,7.579443687e-05,3.876408384e-05,7.385646069e-05,4.500550200e-05,3.563389247e-05,1.520540835e-05,2.377012612e-05,1.694849227e-05,-2.276415092e-06,8.397807797e-06,-4.842881630e-06,-2.550829629e-05,-2.740764370e-05,1.787075812e-04,3.354105452e-05,4.764385497e-05,1.391017387e-05,-4.370881890e-05,1.201865351e-06,-7.351609836e-05,-3.616760525e-06,-3.900320208e-05,-1.831524554e-05,-4.400161754e-05,-2.962425584e-05,4.383653970e-04,8.390460123e-04
0.32,2.460035483e-04,1.515021583e-04,1.077373730e-04,6.787538432e-05,3.457990546e-05,6.705154856e-05,4.457979201e-05,3.318382346e-05,1.231101760e-05,2.398546635e-05,1.629241474e-05,-7.164458873e-07,1.156633572e-05,-1.797109563e-06,-1.921598015e-05,-2.301093567e-05,1.860204645e-04,3.020514302e-05,4.043697230e-05,9.682319952e-06,-4.440846848e-05,-2.107055249e-06,-7.192222875e-05,-3.825698830e-06,-3.625590367e-05,-1.322294928e-05,-3.825192692e-05,-2.178037026e-05,4.539372578e-04,8.332208615e-04
0.325,2.370014548e-04,1.500323510e-04,1.034664540e-04,6.689663209e-05,3.571135743e-05,6.534749590e-05,4.287937677e-05,3.502505314e-05,1.388588745e-05,2.571866594e-05,1.840902865e-05,-1.433963564e-06,1.463782136e-05,2.599698302e-06,-1.324680131e-05,-1.862290810e-05,1.869812950e-04,2.746223209e-05,3.907503898e-05,1.107276220e-05,-3.919012270e-05,8.659174580e-07,-6.819536161e-05,-2.600602833e-07,-2.871580183e-05,-5.986543149e-06,-3.050137521e-05,-1.424025577e-05,4.447299350e-04,8.130223479e-04
0.33,2.257837743e-04,1.543532721e-04,1.038821207e-04,7.019261205e-05,3.916408698e-05,6.781211915e-05,4.214975624e-05,3.840096007e-05,1.796215421e-05,2.550996027e-05,2.122765482e-05,-4.288820634e-06,1.494421584e-05,6.035167497e-06,-9.884586970e-06,-1.625132290e-05,1.756055707e-04,2.427204631e-05,4.077930586e-05,1.512291303e-05,-3.347877419e-05,6.313826144e-06,-6.358238908e-05,4.409607188e-06,-2.143394381e-05,-9.246542753e-07,-2.499133538e-05,-9.989382275e-06,4.328444126e-04,7.842419161e-04
0.335,2.195405742e-04,1.549854848e-04,1.052081146e-04,7.297324957e-05,4.132814342e-05,7.035761063e-05,4.205472624e-05,4.010057459e-05,2.106666020e-05,2.313342009e-05,2.261987213e-05,-7.093859915e-06,1.252984142e-05,7.191505428e-06,-9.458790462e-06,-1.619149723e-05,1.597099611e-04,2.187466253e-05,4.207527211e-05,1.804398118e-05,-3.153786544e-05,9.560706006e-06,-6.002140797e-05,6.853316016e-06,-1.888079002e-05,-7.537870735e-07,-2.421124829e-05,-9.954069276e-06,4.304261959e-04,7.797760819e-04
0.34,2.206711982e-04,1.496173545e-04,1.061798347e-04,7.300843111e-05,4.131300498e-05,7.007630965e-05,4.042784199e-05,3.926703210e-05,2.155725831e-05,2.133586830e-05,2.222650527e-05,-7.746215556e-06,9.992540787e-06,6.444586696e-06,-1.107020876e-05,-1.749222091e-05,1.511327332e-04,2.173460271e-05,4.243336044e-05,1.879190232e-05,-3.339584437e-05,9.312477192e-06,-5.864796685e-05,5.908347782e-06,-2.183572587e-05,-4.722572612e-06,-2.748877728e-05,-1.342368455e-05,4.270186586e-04,7.766424576e-04
0.345,2.239008258e-04,1.435897709e-04,1.074736337e-04,7.170354824e-05,4.087146363e-05,6.789313211e-05,3.675529210e-05,3.754075474e-05,2.085633508e-05,2.198715768e-05,2.140655491e-05,-6.183954408e-06,9.779720587e-06,5.312791152e-06,-1.333042852e-05,-1.873912561e-05,1.522995801e-04,2.287440854e-05,4.355263045e-05,1.904920682e-05,-3.605341620e-05,7.917041960e-06,-5.856954626e-05,3.435346280e-06,-2.717446987e-05,-9.381512260e-06,-3.175193304e-05,-1.845945393e-05,4.354686280e-04,7.711610975e-04
0.35,2.216451967e-04,1.418523734e-04,1.086993832e-04,7.124974559e-05,4.164993236e-05,6.674041769e-05,3.331982323e-05,3.696537713e-05,2.143684212e-05,2.373291817e-05,2.161277566e-05,-4.197117756e-06,1.189101592e-05,5.297604328e-06,-1.457316790e-05,-1.857402103e-05,1.548257113e-04,2.223445081e-05,4.590286768e-05,2.033791845e-05,-3.690965186e-05,8.034485225e-06,-5.786966517e-05,2.395234449e-06,-3.054855780e-05,-1.129549999e-05,-3.377598435e-05,-2.216834716e-05,4.248172589e-04,7.528111200e-04
0.355,2.115515780e-04,1.431555792e-04,1.077311971e-04,7.188995423e-05,4.333411562e-05,6.773747310e-05,3.242841692e-05,3.810192892e-05,2.400976646e-05,2.400220003e-05,2.302721304e-05,-3.506905428e-06,1.431110329e-05,6.995318921e-06,-1.333321800e-05,-1.629022586e-05,1.508030647e-04,1.823473041e-05,4.747768800e-05,2.211690385e-05,-3.563050725e-05,9.858392200e-06,-5.605324922e-05,4.114601813e-06,-2.967228716e-05,-9.492653582e-06,-3.236996704e-05,-2.195207789e-05,4.304570295e-04,7.642471220e-04
0.36,1.985688958e-04,1.429802101e-04,1.036122667e-04,7.241154023e-05,4.467440067e-05,6.899972170e-05,3.365785658e-05,4.002702412e-05,2.709025506e-05,2.256207569e-05,2.481310578e-05,-4.169560542e-06,1.548204030e-05,1.002174021e-05,-9.361834988e-06,-1.243463633e-05,1.423565357e-04,1.344218475e-05,4.650784427e-05,2.301893647e-05,-3.314989953e-05,1.180200763e-05,-5.475581337e-05,7.499971492e-06,-2.552554282e-05,-5.673138440e-06,-2.893719373e-05,-1.755393234e-05,4.273674024e-04,7.763665267e-04
0.365,1.901127331e-04,1.401684324e-04,9.903375095e-05,7.251464339e-05,4.565634284e-05,6.829509932e-05,3.493733082e-05,4.171269741e-05,2.920460522e-05,2.198712688e-05,2.649946490e-05,-4.719026019e-06,1.607289773e-05,1.370118983e-05,-3.977374564e-06,-8.471650512e-06,1.381997561e-04,1.268959204e-05,4.443874441e-05,2.325868642e-05,-2.988253264e-05,1.319988533e-05,-5.534008384e-05,1.081026233e-05,-2.073465393e-05,-2.134253333e-06,-2.594272545e-05,-1.165716371e-05,4.262351980e-04,7.758714374e-04
0.37,1.896491509e-04,1.382844301e-04,9.840688610e-05,7.351181387e-05,4.780155492e-05,6.605862364e-05,3.580894949e-05,4.310525919e-05,3.087451717e-05,2.449368947e-05,2.878979550e-05,-3.638962670e-06,1.823604151e-05,1.785369263e-05,1.203446304e-06,-5.258359687e-06,1.424275018e-04,1.808514824e-05,4.487594889e-05,2.481911322e-05,-2.566564728e-05,1.533815539e-05,-5.633452621e-05,1.375896769e-05,-1.702710108e-05,5.129642539e-07,-2.462684935e-05,-7.565218613e-06,4.212849278e-04,7.785407202e-04
0.375,1.946530162e-04,1.404196259e-04,1.030427763e-04,7.637523462e-05,5.210461253e-05,6.496894707e-05,3.807397483e-05,4.491238311e-05,3.386931470e-05,2.918459528e-05,3.277643071e-05,-6.983837601e-07,2.325187930e-05,2.284361500e-05,5.982967861e-06,-1.914207971e-06,1.497225580e-04,2.621192015e-05,4.931074640e-05,2.894630404e-05,-2.125259086e-05,1.950038441e-05,-5.463370764e-05,1.743059832e-05,-1.433249980e-05,3.529594184e-06,-2.417455636e-05,-5.978505314e-06,4.308382876e-04,7.417790058e-04
0.38,1.998595110e-04,1.446398900e-04,1.090253754e-04,7.982032798e-05,5.716619983e-05,6.660203101e-05,4.267098141e-05,4.755471492e-05,3.859520037e-05,3.307303409e-05,3.837437351e-05,2.901821394e-06,3.003670558e-05,2.872499231e-05,1.152315740e-05,3.150754506e-06,1.521601315e-04,3.076197836e-05,5.477340616e-05,3.401809112e-05,-1.889733394e-05,2.458652374e-05,-4.976973982e-05,2.217475156e-05,-1.208150437e-05,7.986961517e-06,-2.319137687e-05,-4.592079585e-06,4.313055205e-04,7.413439568e-04
0.385,2.018326976e-04,1.458635718e-04,1.106865727e-04,8.113589336e-05,5.995963662e-05,6.927293506e-05,4.710079754e-05,5.045033747e-05,4.285280224e-05,3.441988208e-05,4.376171615e-05,5.511900038e-06,3.593968119e-05,3.439612236e-05,1.826119424e-05,9.794314463e-06,1.482740049e-04,2.811791217e-05,5.655067669e-05,3.661198804e-05,-2.058612536e-05,2.748798555e-05,-4.586348864e-05,2.619953900e-05,-1.074520989e-05,1.280748474e-05,-2.179685258e-05,-1.251852415e-06,4.254416809e-04,7.714187902e-04
0.39,2.006460378e-04,1.414977064e-04,1.061725652e-04,7.897994943e-05,5.861728966e-05,6.977173922e-05,4.739456449e-05,5.233842925e-05,4.369727333e-05,3.420868979e-05,4.662663026e-05,6.283825752e-06,3.889583199e-05,3.793347538e-05,2.433853736e-05,1.528508354e-05,1.433199018e-04,2.040726006e-05,5.310255521e-05,3.485690564e-05,-2.559322650e-05,2.608977917e-05,-4.776974674e-05,2.690737101e-05,-1.154115787e-05,1.531069902e-05,-2.177589184e-05,3.029628206e-06,4.124682747e-04,7.753125277e-04
0.395,1.980995238e-04,1.339423510e-04,9.909998357e-05,7.488207197e-05,5.428823250e-05,6.707091946e-05,4.267767125e-05,5.233000391e-05,4.050445832e-05,3.423103737e-05,4.608758801e-05,5.724167962e-06,3.880820215e-05,3.810249370e-05,2.684809943e-05,1.661849183e-05,1.417144986e-04,1.335472683e-05,4.763546066e-05,3.040133916e-05,-3.039507039e-05,2.156748976e-05,-5.509343688e-05,2.373604399e-05,-1.464064578e-05,1.392180428e-05,-2.438048631e-05,5.009423101e-06,4.483426597e-04,7.750480653e-04
0.4,1.951479501e-04,1.276890888e-04,9.467706030e-05,7.173104321e-05,5.011251474e-05,6.372959073e-05,3.666658672e-05,5.070108802e-05,3.582494600e-05,3.458338304e-05,4.336170668e-05,5.132542541e-06,3.705657786e-05,3.556112400e-05,2.479024910e-05,1.369076155e-05,1.421002094e-04,1.140235117e-05,4.463986406e-05,2.680941991e-05,-3.164496449e-05,1.736209712e-05,-6.136230258e-05,1.922753113e-05,-1.823535866e-05,1.007976550e-05,-2.830575326e-05,3.094646173e-06,4.301798268e-04,7.660503491e-04
0.405,1.912052168e-04,1.251729649e-04,9.467427453e-05,7.098394033e-05,4.838044287e-05,6.327110727e-05,3.399666799e-05,4.863487818e-05,3.296208529e-05,3.381982389e-05,4.049886650e-05,5.423126647e-06,3.498578177e-05,3.231400534e-05,2.025263850e-05,9.553601315e-06,1.406788667e-04,1.459547368e-05,4.536702099e-05,2.610621117e-05,-2.938140134e-05,1.591301849e-05,-6.031907040e-05,1.679433323e-05,-1.994891245e-05,7.005765146e-06,-3.050614305e-05,-6.488299337e-07,4.305193410e-04,7.545813894e-04
0.41,1.855200340e-04,1.257368470e-04,9.642155995e-05,7.154502467e-05,4.866058527e-05,6.626881183e-05,3.558456244e-05,4.708507042e-05,3.277517263e-05,3.132161804e-05,3.849292684e-05,6.461900679e-06,3.305061345e-05,2.981550146e-05,1.627125113e-05,7.285488871e-06,1.369442628e-04,1.930787195e-05,4.708101770e-05,2.706295369e-05,-2.703393589e-05,1.658725700e-05,-5.275045918e-05,1.735149467e-05,-1.925905683e-05,6.452344271e-06,-2.932954824e-05,-2.913317092e-06,4.286599637e-04,7.622591110e-04
0.415,1.787278924e-04,1.272966099e-04,9.618163606e-05,7.115524666e-05,4.851604300e-05,6.931157486e-05,3.826032041e-05,4.587437098e-05,3.302916263e-05,2.861739950e-05,3.670220265e-05,7.649396147e-06,3.129395788e-05,2.776300520e-05,1.389112092e-05,7.218031982e-06,1.334444064e-04,2.131659992e-05,4.637730521e-05,2.675836611e-05,-2.803825682e-05,1.674574206e-05,-4.598662030e-05,1.842441826e-05,-1.818389002e-05,7.002690687e-06,-2.649215637e-05,-2.890555856e-06,4.230477877e-04,7.712492821e-04
0.42,1.728407823e-04,1.277720413e-04,9.275391679e-05,6.853994750e-05,4.591891021e-05,6.806105741e-05,3.859451223e-05,4.406012752e-05,3.089563023e-05,2.792854504e-05,3.408780427e-05,9.121174884e-06,3.025124490e-05,2.498895937e-05,1.195077922e-05,7.824148397e-06,1.304537690e-04,1.849828802e-05,4.255366555e-05,2.354660511e-05,-3.248675876e-05,1.452688107e-05,-4.633222389e-05,1.680058656e-05,-1.923897113e-05,5.948937773e-06,-2.536562465e-05,-2.509524290e-06,4.256961155e-04,7.486735458e-04
0.425,1.697171011e-04,1.255338516e-04,8.779689573e-05,6.429214534e-05,4.112870354e-05,6.150332515e-05,3.617793522e-05,4.132162063e-05,2.598733780e-05,2.981743374e-05,3.082995723e-05,1.200016901e-05,3.094793876e-05,2.144437318e-05,9.622316645e-06,8.761111199e-06,1.241580187e-04,1.166684441e-05,3.767262958e-05,1.848613985e-05,-3.720121157e-05,1.047862912e-05,-5.279328008e-05,1.201716235e-05,-2.267567611e-05,2.753028450e-06,-2.716308604e-05,-2.980245823e-06,4.369757530e-04,7.532832630e-04
0.43,1.695115056e-04,1.202529292e-04,8.348933519e-05,6.014277179e-05,3.651955962e-05,5.329711643e-05,3.312500125e-05,3.883155977e-05,2.090126159e-05,3.274746562e-05,2.848542845e-05,1.698351759e-05,3.378938131e-05,1.884751058e-05,8.152661174e-06,1.159468122e-05,1.122060857e-04,3.722925023e-06,3.403912862e-05,1.420539807e-05,-3.896868693e-05,6.782454641e-06,-5.883246571e-05,7.063315017e-06,-2.591215872e-05,1.258918502e-07,-2.926127965e-05,-2.493143000e-06,4.311680020e-04,7.499584603e-04
0.435,1.704786972e-04,1.139779121e-04,8.062128693e-05,5.763103642e-05,3.463748294e-05,4.882946945e-05,3.149296777e-05,3.837632525e-05,1.884513783e-05,3.477819592e-05,2.845020129e-05,2.265167460e-05,3.757762871e-05,1.900980223e-05,9.312152743e-06,1.685798419e-05,9.957441417e-05,-1.997167048e-06,3.225149636e-05,1.264116879e-05,-3.745350990e-05,5.254907207e-06,-5.956194826e-05,5.568712501e-06,-2.586792048e-05,1.278386056e-06,-2.782755705e-05,1.441484897e-06,4.274009076e-04,7.597951219e-04
0.44,1.702090135e-04,1.101816201e-04,7.877485280e-05,5.717521822e-05,3.612837030e-05,5.055642106e-05,3.201586278e-05,4.040205123e-05,2.073147753e-05,3.516568077e-05,3.037914855e-05,2.579966498e-05,4.000560191e-05,2.163992669e-05,1.253325868e-05,2.150966970e-05,9.572783794e-05,-3.295139741e-06,3.150132868e-05,1.369310380e-05,-3.494959881e-05,6.037221154e-06,-5.600845481e-05,8.323121864e-06,-2.197186197e-05,6.229616876e-06,-2.218757772e-05,7.826088069e-06,4.482472915e-04,7.430437780e-04
0.445,1.672690897e-04,1.104943136e-04,7.755495487e-05,5.797922057e-05,3.925760046e-05,5.587416951e-05,3.463450849e-05,4.318411671e-05,2.448160429e-05,3.434545960e-05,3.236032014e-05,2.422067646e-05,3.953330915e-05,2.427731821e-05,1.477826365e-05,2.114962418e-05,1.046455151e-04,5.113922669e-08,3.101666902e-05,1.564310905e-05,-3.367031070e-05,7.799479603e-06,-5.240002503e-05,1.257463807e-05,-1.691667897e-05,1.132340610e-05,-1.619913731e-05,1.197770306e-05,4.250895573e-04,7.732769727e-04
0.45,1.621234603e-04,1.127798002e-04,7.716627288e-05,5.881525950e-05,4.148563536e-05,5.960198481e-05,3.877528444e-05,4.438984445e-05,2.706864044e-05,3.308818743e-05,3.279625242e-05,1.933089441e-05,3.693300341e-05,2.469564893e-05,1.384482842e-05,1.531911697e-05,1.191764243e-04,6.406749127e-06,3.082811140e-05,1.672791355e-05,-3.367411197e-05,8.972430327e-06,-5.086216607e-05,1.471343856e-05,-1.438582590e-05,1.270501443e-05,-1.485709553e-05,1.039359820e-05,4.284617690e-04,7.740442847e-04
0.455,1.568514164e-04,1.136591925e-04,7.801762664e-05,5.921142692e-05,4.176164910e-05,5.888777318e-05,4.273109938e-05,4.357925122e-05,2.726185024e-05,3.218715342e-05,3.202902491e-05,1.544554908e-05,3.478003086e-05,2.319554983e-05,1.116638037e-05,9.321344627e-06,1.272424490e-04,1.305158163e-05,3.145496205e-05,1.658601828e-05,-3.337218818e-05,9.018453671e-06,-5.005196667e-05,1.363604402e-05,-1.581751242e-05,1.012804900e-05,-1.939388398e-05,5.037627102e-06,4.296351235e-04,7.662459466e-04
0.46,1.538523932e-04,1.128231773e-04,8.013232544e-05,5.991579467e-05,4.133280032e-05,5.580467533e-05,4.402061301e-05,4.274683484e-05,2.644628196e-05,3.248761230e-05,3.186416108e-05,1.575184409e-05,3.503938573e-05,2.213375102e-05,1.030722641e-05,9.203365524e-06,1.237122541e-04,1.719608358e-05,3.327280489e-05,1.646249107e-05,-3.157306521e-05,8.853619684e-06,-4.830732683e-05,1.152072868e-05,-1.917000830e-05,6.988982219e-06,-2.587155215e-05,1.447265293e-06,4.254457284e-04,7.771500824e-04
0.465,1.542152322e-04,1.131801880e-04,8.286479127e-05,6.179184091e-05,4.209888306e-05,5.485498932e-05,4.165496372e-05,4.393094633e-05,2.678062528e-05,3.424903921e-05,3.335567426e-05,1.892615422e-05,3.696307752e-05,2.310080488e-05,1.255324032e-05,1.485857842e-05,1.148944761e-04,1.715204412e-05,3.608125168e-05,1.789471991e-05,-2.866050587e-05,9.974805246e-06,-4.621332418e-05,1.135263993e-05,-2.085824658e-05,6.544916710e-06,-2.879783355e-05,2.426757328e-06,4.304971404e-04,7.714330129e-04
0.47,1.567739817e-04,1.158295143e-04,8.488665972e-05,6.403117115e-05,4.409810727e-05,5.771389294e-05,3.781523378e-05,4.639693610e-05,2.859069134e-05,3.622089146e-05,3.523856998e-05,2.026567153e-05,3.754854162e-05,2.491017978e-05,1.489598605e-05,1.942631158e-05,1.109638181e-04,1.350103060e-05,3.887214963e-05,2.088419118e-05,-2.594290186e-05,1.278177438e-05,-4.521647646e-05,1.371997456e-05,-1.914463839e-05,8.413211603e-06,-2.624267485e-05,4.774552933e-06,4.263940504e-04,7.471626808e-04
0.475,1.587872850e-04,1.164750887e-04,8.458136838e-05,6.398451710e-05,4.497043575e-05,6.082453637e-05,3.601401815e-05,4.684479354e-05,2.975770371e-05,3.614240901e-05,3.493225967e-05,1.657014574e-05,3.442434236e-05,2.475270375e-05,1.317776725e-05,1.645685306e-05,1.152015767e-04,9.353091322e-06,4.002795199e-05,2.336471383e-05,-2.433965798e-05,1.562131764e-05,-4.491596869e-05,1.610659853e-05,-1.584230147e-05,9.111140460e-06,-2.147914392e-05,3.126189804e-06,4.309852408e-04,7.601385444e-04
0.48,1.581090720e-04,1.094021373e-04,8.109214188e-05,5.962574304e-05,4.236332169e-05,5.890345951e-05,3.708726442e-05,4.290222971e-05,2.789836417e-05,3.297992045e-05,3.129724963e-05,9.655258806e-06,2.840290265e-05,2.128822414e-05,6.948447952e-06,7.048127937e-06,1.217461928e-04,8.587399268e-06,3.832999139e-05,2.288197128e-05,-2.393181049e-05,1.588334191e-05,-4.342731214e-05,1.541962653e-05,-1.463721248e-05,5.945877623e-06,-1.971486832e-05,-3.612046782e-06,4.205670692e-04,7.748877008e-04
0.485,1.551461999e-04,9.549748943e-05,7.544041219e-05,5.237540070e-05,3.684776033e-05,5.099330334e-05,3.789898340e-05,3.617970166e-05,2.312733935e-05,2.850177526e-05,2.618572165e-05,4.500192712e-06,2.294586689e-05,1.618940664e-05,2.709970664e-07,-1.354141584e-06,1.231033505e-04,1.261608291e-05,3.425611450e-05,1.911608250e-05,-2.447838749e-05,1.253201015e-05,-4.051618489e-05,1.121168177e-05,-1.751233428e-05,-3.509443045e-08,-2.327235285e-05,-1.098261044e-05,4.263926746e-04,7.667609840e-04
0.49,1.525289241e-04,8.403287951e-05,7.034544257e-05,4.670671236e-05,3.191334050e-05,4.231752041e-05,3.497880801e-05,3.117982320e-05,1.833671950e-05,2.580142912e-05,2.285932813e-05,3.892932391e-06,2.084060391e-05,1.239925078e-05,-2.624061464e-06,-3.291701399e-06,1.179755654e-04,1.849766161e-05,3.008846343e-05,1.456992414e-05,-2.584427399e-05,7.552402979e-06,-3.883605580e-05,6.287560659e-06,-2.270655310e-05,-5.127020585e-06,-2.981012180e-05,-1.428528398e-05,4.338166973e-04,7.971096093e-04
0.495,1.524174460e-04,8.414511925e-05,6.830661705e-05,4.612461195e-05,3.067546174e-05,3.932737900e-05,2.909726405e-05,3.085908245e-05,1.648079058e-05,2.596807183e-05,2.276550579e-05,5.565176676e-06,2.149515226e-05,1.115239214e-05,-1.772806765e-06,-1.074935841e-06,1.111248535e-04,2.101446705e-05,2.818546854e-05,1.238242826e-05,-2.770322915e-05,4.475507173e-06,-4.087238521e-05,4.054985437e-06,-2.625494943e-05,-6.645859773e-06,-3.487365200e-05,-1.382072957e-05,4.135415737e-04,7.532713615e-04
0.5,1.541014853e-04,9.481162116e-05,6.960694507e-05,4.963129629e-05,3.283522415e-05,4.303763957e-05,2.507044392e-05,3.365750595e-05,1.774762801e-05,2.689376991e-05,2.421473220e-05,5.181422326e-06,2.186649355e-05,1.119329328e-05,-8.032253419e-07,-1.231369350e-06,1.070978896e-04,1.758855645e-05,2.897510193e-05,1.343126975e-05,-2.907605766e-05,5.225969746e-06,-4.522020972e-05,5.396416658e-06,-2.561018064e-05,-5.084362281e-06,-3.586995556e-05,-1.365148086e-05,4.251078972e-04,7.880363310e-04
0.505,1.547423564e-04,1.053697744e-04,7.244049482e-05,5.293142439e-05,3.540886567e-05,4.819482742e-05,2.665658568e-05,3.545237955e-05,1.978448674e-05,2.603787856e-05,2.456715202e-05,1.788866121e-06,2.013430743e-05,1.092153201e-05,-2.132315630e-06,-6.002791963e-06,1.059445629e-04,1.124122513e-05,3.095866593e-05,1.590135690e-05,-2.862253936e-05,8.584913701e-06,-4.734652956e-05,8.301176816e-06,-2.175673581e-05,-2.724601417e-06,-3.367608859e-05,-1.573774456e-05,4.395311641e-04,7.753327770e-04
0.51,1.527468113e-04,1.068226927e-04,7.506952460e-05,5.333161231e-05,3.636898286e-05,4.945987836e-05,3.250054144e-05,3.431490142e-05,2.064595494e-05,2.393320534e-05,2.346706085e-05,-7.805928672e-07,1.794683329e-05,1.060211997e-05,-4.039194975e-06,-1.034497300e-05,1.050195908e-04,7.964118017e-06,3.276345565e-05,1.770461066e-05,-2.573496414e-05,1.184194479e-05,-4.454952343e-05,1.037261977e-05,-1.789684862e-05,-8.919468827e-07,-3.097833213e-05,-1.718789132e-05,4.260905203e-04,7.809423358e-04
0.515,1.498553596e-04,1.010743712e-04,7.733251099e-05,5.257465192e-05,3.671479827e-05,4.748720827e-05,3.782571230e-05,3.254744323e-05,2.082506473e-05,2.378602375e-05,2.318576920e-05,1.455386350e-06,1.839343082e-05,1.170713189e-05,-3.283018293e-06,-8.311990379e-06,1.030744713e-04,1.062840533e-05,3.457770161e-05,1.867640840e-05,-2.146498732e-05,1.351798765e-05,-3.927463374e-05,1.111504338e-05,-1.640757248e-05,7.014789859e-07,-2.966650053e-05,-1.433354184e-05,4.295186263e-04,7.614803529e-04
0.52,1.490355295e-04,9.733170987e-05,7.949678362e-05,5.393393145e-05,3.831225037e-05,4.755648109e-05,3.951687668e-05,3.349965433e-05,2.180636611e-05,2.717310663e-05,2.539155181e-05,7.210621066e-06,2.178220819e-05,1.415197964e-05,1.224682891e-08,-1.180389653e-06,1.010937140e-04,1.577972367e-05,3.690102811e-05,1.977261969e-05,-1.826718973e-05,1.392575595e-05,-3.658056421e-05,1.140926220e-05,-1.729384644e-05,2.128854661e-06,-2.986341519e-05,-8.409195454e-06,4.186721421e-04,7.859991580e-04
0.525,1.502854683e-04,1.002652664e-04,8.001682487e-05,5.694754632e-05,4.025776655e-05,5.220168703e-05,3.841758890e-05,3.686731129e-05,2.306063204e-05,3.110565225e-05,2.816798786e-05,1.038059469e-05,2.428247542e-05,1.517136315e-05,1.530139146e-06,2.853306904e-06,9.968145059e-05,1.703659835e-05,3.820476359e-05,2.048577406e-05,-1.848783672e-05,1.332250964e-05,-3.856948935e-05,1.125821552e-05,-1.923122895e-05,1.929022941e-06,-3.079435108e-05,-5.181324844e-06,4.278761707e-04,7.658073417e-04
0.53,1.496156925e-04,1.043779771e-04,7.571389740e-05,5.662611296e-05,3.879199255e-05,5.688184875e-05,3.677034445e-05,3.825064539e-05,2.172246212e-05,3.064481012e-05,2.731770616e-05,6.455151047e-06,2.162078138e-05,1.190393674e-05,-2.474729684e-06,-2.300629861e-06,9.741389030e-05,1.165597485e-05,3.513598171e-05,1.833240594e-05,-2.263437940e-05,1.066141795e-05,-4.230721698e-05,9.148195313e-06,-2.131185492e-05,-1.412391281e-06,-3.182847921e-05,-8.334382142e-06,4.442776571e-04,7.642428674e-04
0.535,1.432300083e-04,1.011470910e-04,6.518258975e-05,4.892778550e-05,3.160654259e-05,5.457350686e-05,3.501318901e-05,3.391684962e-05,1.600185301e-05,2.450999474e-05,2.107514909e-05,-2.182409284e-06,1.407962493e-05,5.079598609e-06,-1.027914954e-05,-1.322837144e-05,9.266539859e-05,3.164085347e-06,2.606749013e-05,1.176554302e-05,-2.884477829e-05,5.051712523e-06,-4.357273968e-05,4.200211253e-06,-2.338273716e-05,-6.873677944e-06,-3.260422358e-05,-1.460427615e-05,4.283706745e-04,7.890831920e-04
0.54,1.324470325e-04,8.974048035e-05,5.173283959e-05,3.633175641e-05,2.152660061e-05,4.436064487e-05,3.223704615e-05,2.541386647e-05,8.270066225e-06,1.696029708e-05,1.283960276e-05,-8.374554415e-06,6.932852002e-06,-7.968226235e-07,-1.577525460e-05,-2.017919556e-05,8.626000031e-05,-2.752033159e-06,1.410982175e-05,3.047117435e-06,-3.422113687e-05,-2.000055122e-06,-4.189006499e-05,-1.716293840e-06,-2.526741697e-05,-1.095048168e-05,-3.283531611e-05,-1.709232906e-05,4.533733491e-04,7.722462385e-04
0.545,1.231880841e-04,7.806968100e-05,4.171546371e-05,2.638551278e-05,1.453126818e-05,3.359488548e-05,2.887169787e-05,1.846141374e-05,3.399407533e-06,1.328733741e-05,8.196502199e-06,-7.743499052e-06,5.216530477e-06,-1.742365023e-06,-1.483201516e-05,-1.757665200e-05,8.103996793e-05,-4.353032936e-06,5.324567596e-06,-3.123099190e-06,-3.713879314e-05,-7.141760145e-06,-4.099042619e-05,-5.219136482e-06,-2.663036757e-05,-1.112837606e-05,-3.263758288e-05,-1.332208912e-05,4.506695830e-04,7.984972291e-04
0.55,1.199071367e-04,7.331772740e-05,3.903524299e-05,2.408205429e-05,1.363349125e-05,3.029640972e-05,2.692334151e-05,1.702607135e-05,3.536536682e-06,1.401426796e-05,9.045419099e-06,-3.308986179e-06,8.353468985e-06,1.376416676e-06,-9.841942182e-06,-9.982735168e-06,7.860881294e-05,-5.076211969e-06,3.173311145e-06,-4.409284396e-06,-3.847844605e-05,-8.625830849e-06,-4.436311009e-05,-5.129057268e-06,-2.778446119e-05,-8.927654644e-06,-3.286193804e-05,-8.420437109e-06,4.527171037e-04,7.883668224e-04
0.555,1.208579311e-04,7.400278787e-05,4.149795189e-05,2.659604674e-05,1.557949241e-05,3.422764158e-05,2.696700120e-05,1.922625497e-05,5.427766727e-06,1.474562813e-05,1.150642197e-05,-1.922606068e-06,1.079921606e-05,3.586220687e-06,-7.110262496e-06,-6.735828275e-06,7.742912627e-05,-8.724412510e-06,5.168869527e-06,-3.472348354e-06,-4.035601837e-05,-8.457831293e-06,-5.107985360e-05,-4.100703982e-06,-2.975450937e-05,-8.464127663e-06,-3.433224500e-05,-9.235935348e-06,4.466964885e-04,7.852826906e-04
0.56,1.205862353e-04,7.309834931e-05,4.325729789e-05,2.671251674e-05,1.461454795e-05,3.725426269e-05,2.646977654e-05,1.982058033e-05,4.064179604e-06,1.190164853e-05,1.037784080e-05,-6.545844635e-06,8.264874013e-06,1.240151923e-06,-9.855480157e-06,-1.147964872e-05,7.493469886e-05,-1.435543391e-05,5.844152408e-06,-4.770709380e-06,-4.332796058e-05,-9.974683876e-06,-5.639282362e-05,-5.578978409e-06,-3.271427075e-05,-1.162803595e-05,-3.639598479e-05,-1.606748623e-05,4.363581954e-04,7.818646342e-04
0.565,1.169154170e-04,6.760973886e-05,4.103422243e-05,2.128893483e-05,9.338233266e-06,3.297392888e-05,2.281406793e-05,1.647060995e-05,-1.126930477e-06,7.342859184e-06,5.309489673e-06,-1.312345378e-05,2.571797310e-06,-3.803107994e-06,-1.470520471e-05,-1.851885252e-05,7.122613872e-05,-1.678078256e-05,3.023478919e-06,-8.881486103e-06,-4.502777422e-05,-1.331075342e-05,-5.616093230e-05,-9.313586686e-06,-3.471428419e-05,-1.547888249e-05,-3.681860939e-05,-2.186649441e-05,4.705292453e-04,7.867861112e-04
0.57,1.138137440e-04,6.236994940e-05,3.743141888e-05,1.503994008e-05,4.677699736e-06,2.447593960e-05,1.764973821e-05,1.251672752e-05,-4.956724203e-06,6.138454285e-06,1.499701073e-06,-1.544071390e-05,-4.560691458e-07,-6.136351688e-06,-1.565766819e-05,-1.982909807e-05,6.966392751e-05,-1.208575246e-05,2.862081535e-07,-1.124485309e-05,-4.221326226e-05,-1.452461376e-05,-5.042008665e-05,-1.105793699e-05,-3.314671489e-05,-1.535479299e-05,-3.398400880e-05,-2.016018133e-05,4.423997296e-04,8.070988281e-04
0.575,1.162231609e-04,6.370498526e-05,3.776017189e-05,1.520532802e-05,6.401322107e-06,2.097417326e-05,1.626973687e-05,1.300120120e-05,-2.127433797e-06,1.013770343e-05,3.839777023e-06,-1.215071240e-05,2.307675882e-06,-2.882987041e-06,-1.097486684e-05,-1.426896782e-05,7.316765545e-05,-2.050590716e-06,2.661781754e-06,-7.363754195e-06,-3.458999223e-05,-1.016321897e-05,-4.294817319e-05,-7.406467976e-06,-2.801738432e-05,-1.042081100e-05,-2.926441333e-05,-1.259589499e-05,4.258945185e-04,8.042360389e-04
0.58,1.230156771e-04,7.127902299e-05,4.392587652e-05,2.316420775e-05,1.429039004e-05,2.704064658e-05,2.151307359e-05,1.852830704e-05,6.380442064e-06,1.524907889e-05,1.110491849e-05,-7.882738282e-06,7.715981845e-06,2.958629422e-06,-5.192388223e-06,-8.411152507e-06,8.022032329e-05,7.145524863e-06,1.039539037e-05,1.365510334e-06,-2.628068297e-05,-2.128214557e-06,-3.791434656e-05,-2.792536848e-07,-2.297425536e-05,-5.078760079e-06,-2.636626241e-05,-7.294507562e-06,4.326082775e-04,8.193317044e-04
0.585,1.271266434e-04,7.800608568e-05,5.198377074e-05,3.246012725e-05,2.178270146e-05,3.692316127e-05,2.928649996e-05,2.407962786e-05,1.368707460e-05,1.586982542e-05,1.690222383e-05,-7.525236240e-06,9.956939994e-06,5.726274194e-06,-4.108107166e-06,-8.561863877e-06,8.532740220e-05,1.025170100e-05,1.790150832e-05,8.208344550e-06,-2.275437135e-05,3.320615492e-06,-3.696642947e-05,4.507107283e-06,-2.200361922e-05,-4.295114273e-06,-2.764444398e-05,-9.890458316e-06,4.257543736e-04,8.214478487e-04
0.59,1.233653902e-04,7.750592655e-05,5.571609975e-05,3.522341029e-05,2.251471881e-05,4.053245014e-05,3.188816312e-05,2.417561265e-05,1.393893582e-05,1.120198311e-05,1.632753724e-05,-1.072384106e-05,7.014901331e-06,3.155034114e-06,-8.578649219e-06,-1.369716054e-05,8.396375603e-05,6.802602404e-06,1.908781560e-05,7.739286137e-06,-2.590174945e-05,1.826894509e-06,-3.890218437e-05,3.239360999e-06,-2.514977710e-05,-8.220918771e-06,-3.141874636e-05,-1.758723027e-05,4.323596497e-04,8.211834623e-04
0.595,1.146379136e-04,6.999957285e-05,5.214075331e-05,2.965150118e-05,1.643201187e-05,3.416154111e-05,2.612693336e-05,1.853791469e-05,7.973635059e-06,5.935090907e-06,1.077189016e-05,-1.296975410e-05,2.476138662e-06,-1.611654982e-06,-1.403421384e-05,-1.738588969e-05,7.702621960e-05,3.314731471e-07,1.311460734e-05,1.127080609e-06,-3.235929547e-05,-4.641695099e-06,-4.148200279e-05,-2.052287018e-06,-2.855652499e-05,-1.248318924e-05,-3.381877799e-05,-2.283727755e-05,4.289228554e-04,8.140239862e-04
0.6,1.087638688e-04,6.077923174e-05,4.344635264e-05,2.075193200e-05,9.037249142e-06,2.386875120e-05,1.699546174e-05,1.206614827e-05,1.595864113e-06,4.693000516e-06,5.730866977e-06,-1.147476478e-05,9.230812720e-07,-4.053641303e-06,-1.581613395e-05,-1.577159437e-05,7.006233072e-05,-5.218626987e-06,4.585633642e-06,-5.717049176e-06,-3.694905053e-05,-1.031999382e-05,-4.342716390e-05,-6.441731827e-06,-2.920470264e-05,-1.366851216e-05,-3.337701731e-05,-2.194160466e-05,4.463542987e-04,8.265701381e-04
0.605,1.094449925e-04,5.469951818e-05,3.431758489e-05,1.466566568e-05,5.404271853e-06,1.837292940e-05,1.249756360e-05,9.592782525e-06,-8.984706051e-07,7.090109378e-06,4.708516732e-06,-8.430019853e-06,2.750476016e-06,-3.274570864e-06,-1.391603874e-05,-1.176373295e-05,6.790741974e-05,-8.028350476e-06,-1.276162091e-06,-8.499148508e-06,-3.753742995e-05,-1.194188432e-05,-4.493565827e-05,-7.707150795e-06,-2.859397965e-05,-1.313487031e-05,-3.277678554e-05,-1.844793859e-05,4.286981340e-04,8.336070097e-04
0.61,1.122482156e-04,5.329323671e-05,2.823204227e-05,1.348221897e-05,6.002828611e-06,2.021643882e-05,1.551695320e-05,1.151685802e-05,-2.173576153e-07,9.119837129e-06,6.397877702e-06,-7.867755112e-06,4.501609549e-06,-2.146779897e-06,-1.195013504e-05,-1.076013008e-05,7.016526142e-05,-8.321050839e-06,-2.794324484e-06,-7.944864519e-06,-3.614877530e-05,-1.130851014e-05,-4.652098636e-05,-7.845813504e-06,-3.045880349e-05,-1.445506795e-05,-3.519346809e-05,-1.788861685e-05,4.266170709e-04,8.388543591e-04
0.615,1.103927464e-04,5.575403636e-05,2.613751374e-05,1.538337044e-05,8.178063824e-06,2.486171485e-05,2.180528026e-05,1.468096196e-05,6.775477362e-07,8.581490749e-06,7.672472493e-06,-1.041296329e-05,3.732989378e-06,-3.016748050e-06,-1.230328747e-05,-1.372947652e-05,7.209888609e-05,-7.120813071e-06,-1.568849762e-06,-7.105829961e-06,-3.563487079e-05,-1.162387251e-05,-4.759089906e-05,-9.188694187e-06,-3.515308240e-05,-1.797802001e-05,-3.951624285e-05,-2.079652717e-05,4.256051302e-04,8.322292531e-04
0.62,1.031020960e-04,6.010750832e-05,2.735455026e-05,1.807141974e-05,1.008713694e-05,2.721987677e-05,2.558563637e-05,1.646167826e-05,9.646336698e-07,7.512669818e-06,7.778356221e-06,-1.263026193e-05,1.976819026e-06,-4.727629115e-06,-1.360175677e-05,-1.637361201e-05,6.984684101e-05,-5.602054625e-06,3.984118212e-07,-6.997736770e-06,-3.627377118e-05,-1.292599846e-05,-4.657145533e-05,-1.075228563e-05,-3.813770577e-05,-1.981530848e-05,-4.080158718e-05,-2.252196623e-05,4.340039933e-04,8.339528306e-04
0.625,9.633721981e-05,6.295610510e-05,3.053599662e-05,2.060787497e-05,1.187911801e-05,2.687399128e-05,2.552461536e-05,1.691287014e-05,2.156266001e-06,8.858193976e-06,8.387794233e-06,-1.162445475e-05,2.239886308e-06,-4.595866496e-06,-1.320083593e-05,-1.510862565e-05,6.441237980e-05,-4.975710484e-06,2.218937646e-06,-6.228304200e-06,-3.624012948e-05,-1.258882466e-05,-4.279562583e-05,-9.808962034e-06,-3.524255714e-05,-1.688771126e-05,-3.618632199e-05,-1.959529186e-05,4.290644052e-04,8.365460740e-04
0.63,9.541663012e-05,6.054862693e-05,3.390032989e-05,2.247140780e-05,1.363731741e-05,2.642689170e-05,2.440650751e-05,1.718887180e-05,4.646809791e-06,1.215495513e-05,1.023296579e-05,-8.824180307e-06,4.715772092e-06,-2.346805639e-06,-1.091569936e-05,-1.192049275e-05,6.031307558e-05,-5.920498788e-06,3.442948018e-06,-4.204894245e-06,-3.467195104e-05,-9.724553838e-06,-3.805919439e-05,-6.323056507e-06,-2.841960469e-05,-1.152358735e-05,-2.920884227e-05,-1.428273794e-05,4.283583471e-04,8.400523156e-04
0.635,9.893904464e-05,5.262367506e-05,3.576983173e-05,2.275925344e-05,1.409419809e-05,2.672301278e-05,2.420081590e-05,1.735920855e-05,6.222702052e-06,1.409012480e-05,1.156145754e-05,-8.003926336e-06,6.573211924e-06,-5.296636024e-07,-8.959908171e-06,-1.166239990e-05,6.055248492e-05,-7.681383134e-06,3.586830487e-06,-2.672616287e-06,-3.285811400e-05,-7.013125692e-06,-3.551840278e-05,-3.767184017e-06,-2.422915280e-05,-9.165061718e-06,-2.655381359e-05,-1.152151930e-05,4.292398867e-04,8.269150757e-04
0.64,1.011472748e-04,4.480903597e-05,3.576110565e-05,2.137864364e-05,1.239534561e-05,2.589105235e-05,2.343612620e-05,1.676881277e-05,5.043622957e-06,1.314590110e-05,1.073165258e-05,-1.009169005e-05,6.071819326e-06,-8.032654908e-07,-8.366746074e-06,-1.514912520e-05,6.341421318e-05,-8.226887216e-06,3.093322969e-06,-3.161423861e-06,-3.200173241e-05,-7.153689710e-06,-3.650339515e-05,-4.673393560e-06,-2.611227073e-05,-1.148682051e-05,-3.029352089e-05,-1.224091905e-05,4.356626620e-04,8.288442021e-04
0.645,9.889001363e-05,4.452903087e-05,3.512342298e-05,2.008787415e-05,1.010870706e-05,2.289450898e-05,1.986518842e-05,1.583608391e-05,2.805760806e-06,1.194710831e-05,9.103345595e-06,-1.157044508e-05,5.296206258e-06,-1.264690191e-06,-7.032083813e-06,-1.710943560e-05,6.438571910e-05,-6.116082088e-06,3.721467246e-06,-4.226336757e-06,-3.104780536e-05,-8.839617714e-06,-3.881218185e-05,-6.806265737e-06,-2.990123847e-05,-1.370004095e-05,-3.489578918e-05,-1.180609089e-05,4.304144309e-04,8.383167715e-04
0.65,9.410257419e-05,5.278350534e-05,3.507528984e-05,2.073730258e-05,9.747836416e-06,1.974783772e-05,1.427070775e-05,1.588526756e-05,2.956625073e-06,1.378272503e-05,9.589733701e-06,-8.802466405e-06,7.447771035e-06,1.112252073e-06,-2.500406265e-06,-1.227056154e-05,6.084119550e-05,-2.552169301e-06,6.472538575e-06,-3.124725405e-06,-2.820875471e-05,-8.305538684e-06,-3.900880724e-05,-5.714792508e-06,-2.878507054e-05,-1.022274207e-05,-3.328444698e-05,-5.952304515e-06,4.281446241e-04,8.296127592e-04
0.655,8.960038249e-05,6.100428190e-05,3.472348205e-05,2.221817626e-05,1.099829600e-05,1.870702454e-05,1.019231551e-05,1.664487339e-05,5.598445539e-06,1.757164148e-05,1.222195520e-05,-2.974039550e-06,1.194486447e-05,5.727252983e-06,3.830735458e-06,-2.500908758e-06,5.434921602e-05,-1.173640731e-06,9.054528728e-06,-3.299221148e-07,-2.453303427e-05,-5.038259835e-06,-3.655114296e-05,-1.096106164e-06,-2.221327084e-05,-2.312247203e-06,-2.533194702e-05,3.016806180e-06,4.269141187e-04,8.287841361e-04
0.66,8.508879411e-05,5.832844777e-05,3.147579459e-05,2.052497893e-05,9.887252962e-06,1.836906450e-05,1.005035620e-05,1.514134285e-05,6.049227684e-06,1.813472561e-05,1.283819340e-05,7.079410489e-07,1.398375448e-05,7.767659174e-06,6.897417006e-06,4.045672930e-06,4.851573600e-05,-5.028971651e-06,6.919382282e-06,-4.984790356e-07,-2.424477105e-05,-3.932537285e-06,-3.475849687e-05,1.398976255e-06,-1.757854459e-05,2.046115202e-06,-1.860848372e-05,7.769021628e-06,4.167549808e-04,8.199987505e-04
0.665,7.918747336e-05,4.290610039e-05,2.423531216e-05,1.314162675e-05,3.153527127e-06,1.485400063e-05,1.267088403e-05,8.690679821e-06,9.520583555e-08,1.224256520e-05,7.639922903e-06,-1.104668839e-06,9.880250585e-06,3.463493306e-06,3.234474536e-06,1.534481902e-06,4.529644805e-05,-1.326731679e-05,-1.841031173e-06,-7.340849606e-06,-3.014841860e-05,-9.955878194e-06,-3.688702952e-05,-3.685547734e-06,-2.180109222e-05,-3.159689832e-06,-2.000432101e-05,3.927061962e-06,4.290912031e-04,8.452928861e-04
0.67,7.386105130e-05,2.507928981e-05,1.585861374e-05,3.090914990e-06,-6.829719569e-06,7.474503009e-06,1.500958194e-05,-8.760290760e-07,-9.905604013e-06,3.274315692e-06,-1.416918201e-06,-6.045299267e-06,1.920993592e-06,-4.798335560e-06,-4.641345670e-06,-6.999131156e-06,4.387541627e-05,-2.100977661e-05,-1.295786951e-05,-1.804650353e-05,-3.919481373e-05,-2.116695630e-05,-4.165757805e-05,-1.433248609e-05,-3.253486923e-05,-1.452825047e-05,-2.781384227e-05,-4.873029440e-06,4.275469402e-04,8.570986187e-04
0.675,7.352582968e-05,1.825284550e-05,1.143543282e-05,-2.757584135e-06,-1.304177152e-05,1.414644096e-06,1.550425782e-05,-7.415749926e-06,-1.611556051e-05,-1.702450203e-06,-7.470760781e-06,-8.975053456e-06,-3.561609435e-06,-1.013776275e-05,-1.034247447e-05,-1.298962513e-05,4.261439241e-05,-2.316051941e-05,-1.878295202e-05,-2.468166569e-05,-4.430254351e-05,-2.910910971e-05,-4.390833234e-05,-2.188765085e-05,-3.987101387e-05,-2.215237958e-05,-3.362390178e-05,-1.102153679e-05,4.255145774e-04,8.342352702e-04
0.68,7.865264077e-05,2.648158933e-05,1.353477144e-05,-2.667026534e-07,-1.068917572e-05,2.741677367e-06,1.502798360e-05,-6.225132480e-06,-1.332957678e-05,3.558369179e-07,-5.824409261e-06,-8.169578769e-06,-3.100117512e-06,-8.428769494e-06,-1.034676231e-05,-1.193014743e-05,4.105172772e-05,-1.890553976e-05,-1.548496116e-05,-2.208832986e-05,-4.143149037e-05,-2.727265806e-05,-4.023703508e-05,-1.999652129e-05,-3.708205854e-05,-2.006726859e-05,-3.185462975e-05,-1.145256167e-05,4.194997524e-04,8.283018293e-04
0.685,8.269954090e-05,4.122844194e-05,1.943284837e-05,7.459462364e-06,-2.576206447e-06,1.088045983e-05,1.501656382e-05,5.948426386e-07,-4.993035407e-06,4.950976808e-06,6.704472707e-07,-7.166827338e-06,1.139793182e-07,-2.932976860e-06,-7.748985190e-06,-8.180889969e-06,3.969517179e-05,-1.248238003e-05,-7.028434154e-06,-1.356162849e-05,-3.403807321e-05,-1.826393506e-05,-3.321910615e-05,-1.161634842e-05,-2.796969349e-05,-1.247088016e-05,-2.580445380e-05,-1.066343362e-05,4.262549027e-04,8.423204990e-04
0.69,7.838334812e-05,4.981825631e-05,2.355585549e-05,1.287017519e-05,3.390676795e-06,1.795092233e-05,1.564374533e-05,5.688262953e-06,2.032352290e-07,5.177447551e-06,4.446958789e-06,-1.004337431e-05,1.387338846e-07,-7.894938251e-07,-8.620626989e-06,-9.562397019e-06,3.875646578e-05,-9.187225606e-06,-1.260271081e-06,-7.524348970e-06,-2.939582713e-05,-1.119779618e-05,-2.901068418e-05,-5.852107270e-06,-2.230923748e-05,-8.766683966e-06,-2.339361035e-05,-1.486531272e-05,4.217630951e-04,8.297059844e-04
0.695,6.697673161e-05,4.641885101e-05,2.266486778e-05,1.130114790e-05,2.137630576e-06,1.679977609e-05,1.595865654e-05,3.894267278e-06,-2.460892449e-06,-2.729163545e-07,1.301528727e-06,-1.603057017e-05,-4.776363521e-06,-5.298414019e-06,-1.515408434e-05,-1.823053708e-05,3.811332888e-05,-1.045519857e-05,-2.185159162e-06,-8.765851809e-06,-3.072432840e-05,-1.209585230e-05,-3.085831548e-05,-8.185270999e-06,-2.500547509e-05,-1.336687056e-05,-2.805716212e-05,-2.443929545e-05,4.193956674e-04,8.255136190e-04
0.7,5.867343309e-05,3.537068194e-05,1.831627305e-05,5.050611399e-06,-3.900701751e-06,8.844218132e-06,1.498915594e-05,-2.517872475e-06,-9.240814859e-06,-5.683926291e-06,-5.503556167e-06,-2.021245344e-05,-1.051632458e-05,-1.283760371e-05,-2.348357374e-05,-2.842372322e-05,3.829944069e-05,-1.303785723e-05,-6.835315958e-06,-1.415263544e-05,-3.423409408e-05,-1.820719842e-05,-3.593310886e-05,-1.530342265e-05,-3.165619647e-05,-2.183093112e-05,-3.551978927e-05,-3.362137289e-05,4.237226469e-04,8.320243375e-04
0.705,6.190551117e-05,2.568148508e-05,1.437030500e-05,1.782987681e-07,-8.282865283e-06,2.429848890e-06,1.226089912e-05,-6.798453901e-06,-1.304664178e-05,-5.280555552e-06,-9.620710187e-06,-1.950320048e-05,-1.248713353e-05,-1.763563159e-05,-2.843656035e-05,-3.328087104e-05,4.024093195e-05,-1.309500632e-05,-9.736597606e-06,-1.729891081e-05,-3.440803478e-05,-2.231974264e-05,-3.889879505e-05,-1.999666617e-05,-3.494141315e-05,-2.695899529e-05,-3.951918116e-05,-3.738752786e-05,4.216227082e-04,8.529970210e-04
0.71,7.346588597e-05,2.346102697e-05,1.286810191e-05,5.819852174e-08,-7.802841418e-06,3.421279225e-06,7.957415673e-06,-5.468549945e-06,-1.169444333e-05,-3.599347268e-07,-8.971110750e-06,-1.651130252e-05,-1.124045102e-05,-1.833700785e-05,-2.929200757e-05,-3.232188198e-05,4.328436876e-05,-1.064287319e-05,-9.233744100e-06,-1.612564851e-05,-3.090903744e-05,-2.131815497e-05,-3.767435387e-05,-1.964238146e-05,-3.327153753e-05,-2.690312684e-05,-3.886242964e-05,-3.693291158e-05,4.253478123e-04,8.638088684e-04
0.715,8.144114271e-05,2.859900941e-05,1.290505372e-05,2.748098662e-06,-5.178272763e-06,9.000014428e-06,3.492269858e-06,-1.912922026e-06,-9.521439409e-06,2.028032769e-06,-7.372314176e-06,-1.643559198e-05,-1.141814025e-05,-1.858021431e-05,-2.974905741e-05,-3.094660173e-05,4.440157533e-05,-9.300930742e-06,-8.298005606e-06,-1.433810610e-05,-2.862999131e-05,-1.880853371e-05,-3.475354857e-05,-1.817593746e-05,-3.135184755e-05,-2.593509972e-05,-3.751411674e-05,-3.728625527e-05,4.113241281e-04,8.457563737e-04
0.72,7.805320712e-05,3.637879395e-05,1.299126467e-05,4.253093272e-06,-4.793401922e-06,1.174868114e-05,1.617438703e-06,-1.841297193e-06,-1.111311869e-05,-2.533849706e-06,-9.045231556e-06,-2.071141224e-05,-1.553493029e-05,-2.148799868e-05,-3.260156344e-05,-3.323435454e-05,4.093703340e-05,-1.162925357e-05,-9.625434347e-06,-1.578880168e-05,-3.101837184e-05,-1.950874488e-05,-3.339632615e-05,-2.004945533e-05,-3.311909353e-05,-2.808200982e-05,-3.871589213e-05,-4.048437995e-05,4.236526522e-04,8.429861238e-04
0.725,6.759935264e-05,4.120155868e-05,1.322218816e-05,3.134488225e-06,-7.290286461e-06,8.714346978e-06,4.576409789e-06,-6.295892008e-06,-1.542398132e-05,-1.032108099e-05,-1.321236660e-05,-2.517110364e-05,-2.052147654e-05,-2.536988761e-05,-3.600261343e-05,-3.711799131e-05,3.447584843e-05,-1.563168840e-05,-1.178279829e-05,-1.932998537e-05,-3.523969638e-05,-2.309705703e-05,-3.406428308e-05,-2.439493309e-05,-3.672356477e-05,-3.214954476e-05,-4.118976754e-05,-4.301682086e-05,4.305389235e-04,8.427647101e-04
0.73,6.058571232e-05,4.003245054e-05,1.444874456e-05,1.248328540e-06,-9.488236883e-06,4.413786452e-06,1.133106753e-05,-1.061283192e-05,-1.750215040e-05,-1.357356476e-05,-1.541805699e-05,-2.502144710e-05,-2.141293725e-05,-2.603290613e-05,-3.594862622e-05,-3.751917135e-05,3.056034909e-05,-1.685544473e-05,-1.136513501e-05,-2.056328704e-05,-3.546065303e-05,-2.512261628e-05,-3.514259185e-05,-2.658732664e-05,-3.764925133e-05,-3.394897261e-05,-4.182082162e-05,-4.062322649e-05,4.148223610e-04,8.513248427e-04
0.735,6.166084190e-05,3.426013987e-05,1.602670326e-05,6.472850399e-07,-9.048540516e-06,4.559816622e-06,1.733343677e-05,-1.033078448e-05,-1.518862400e-05,-9.558141185e-06,-1.353766311e-05,-2.064470407e-05,-1.759670844e-05,-2.257246490e-05,-3.173083903e-05,-3.308719559e-05,3.305978007e-05,-1.385124478e-05,-8.134492921e-06,-1.787629425e-05,-3.031792831e-05,-2.322373493e-05,-3.583245851e-05,-2.463972235e-05,-3.518713980e-05,-3.213679394e-05,-4.045686442e-05,-3.426827266e-05,4.158039640e-04,8.394333639e-04
0.74,6.571229855e-05,2.870986371e-05,1.574180354e-05,1.027574597e-06,-7.562365433e-06,8.757205265e-06,1.832630307e-05,-6.613362794e-06,-1.208115288e-05,-3.863689140e-06,-1.068134593e-05,-1.721945008e-05,-1.382373951e-05,-1.914051446e-05,-2.743137089e-05,-2.810515257e-05,3.902076862e-05,-1.037622494e-05,-6.153209900e-06,-1.485770631e-05,-2.522581945e-05,-2.038920317e-05,-3.674428228e-05,-2.197193763e-05,-3.355106462e-05,-2.999796140e-05,-4.018513492e-05,-2.974755005e-05,4.225670260e-04,8.440012243e-04
0.745,6.569037606e-05,2.769793079e-05,1.252919881e-05,6.830769498e-07,-8.201016097e-06,1.131277639e-05,1.465522163e-05,-4.572534135e-06,-1.305756035e-05,-3.863104532e-06,-1.133698363e-05,-1.862666909e-05,-1.465997201e-05,-2.029062595e-05,-2.749447667e-05,-2.747368297e-05,4.071688957e-05,-1.124286497e-05,-9.009102878e-06,-1.598690527e-05,-2.635255513e-05,-2.117758357e-05,-3.788296985e-05,-2.311671357e-05,-3.639939161e-05,-3.121691452e-05,-4.300609702e-05,-3.133429470e-05,4.324470159e-04,8.475237868e-04
0.75,6.148198406e-05,3.106137179e-05,8.585857353e-06,-7.597155208e-07,-1.118127648e-05,8.798509314e-06,1.102019473e-05,-6.762811283e-06,-1.806331259e-05,-9.923281618e-06,-1.565416073e-05,-2.294736292e-05,-1.910885495e-05,-2.553750797e-05,-3.169473111e-05,-3.115706430e-05,3.384197957e-05,-1.638002731e-05,-1.490157938e-05,-2.099365241e-05,-3.326847536e-05,-2.583916608e-05,-3.785116371e-05,-2.795412920e-05,-4.207061269e-05,-3.527925692e-05,-4.697535420e-05,-3.710795112e-05,4.218785617e-04,8.586597716e-04
0.755,5.903484960e-05,3.436058516e-05,7.755812794e-06,-1.524435333e-06,-1.300751123e-05,4.524919053e-06,1.146088256e-05,-1.001746357e-05,-2.188681044e-05,-1.477663167e-05,-1.902001231e-05,-2.486213864e-05,-2.188168665e-05,-2.975463654e-05,-3.548324954e-05,-3.470896219e-05,2.294883598e-05,-2.027559212e-05,-1.790511818e-05,-2.483020097e-05,-3.897631980e-05,-2.970849747e-05,-3.600724440e-05,-3.166302092e-05,-4.549376848e-05,-3.813777118e-05,-4.855794733e-05,-4.133106943e-05,4.167365313e-04,8.566966876e-04
0.76,6.194239259e-05,3.370197785e-05,1.152258654e-05,2.504295534e-07,-1.057947565e-05,4.257084188e-06,1.515908335e-05,-9.500927418e-06,-2.011890885e-05,-1.195798442e-05,-1.744186490e-05,-2.197417294e-05,-1.968884327e-05,-2.891663435e-05,-3.513315957e-05,-3.474927325e-05,1.736768591e-05,-1.792875611e-05,-1.434271549e-05,-2.322159478e-05,-3.731172236e-05,-2.847149288e-05,-3.417677167e-05,-3.024049060e-05,-4.393885090e-05,-3.689696312e-05,-4.677561318e-05,-4.068117922e-05,4.183380967e-04,8.319801726e-04
0.765,6.670684459e-05,3.013552053e-05,1.708670578e-05,4.204934868e-06,-5.108985868e-06,8.811183375e-06,1.788616840e-05,-4.830113619e-06,-1.405156580e-05,-3.482968283e-06,-1.216195167e-05,-1.750981570e-05,-1.496829336e-05,-2.435069737e-05,-3.151735877e-05,-3.245900502e-05,2.149174995e-05,-1.065256024e-05,-6.946956014e-06,-1.716918325e-05,-2.922710946e-05,-2.282822380e-05,-3.441113245e-05,-2.476917720e-05,-3.930515950e-05,-3.262055454e-05,-4.359880421e-05,-3.696832821e-05,4.178028486e-04,8.493928315e-04
0.77,6.718383758e-05,2.837623853e-05,1.987953899e-05,7.960671724e-06,-9.971008555e-07,1.311652998e-05,1.711809340e-05,-5.970061200e-07,-8.899470244e-06,2.296201403e-06,-8.040643355e-06,-1.632931170e-05,-1.275606067e-05,-2.070637116e-05,-2.837984735e-05,-3.118795893e-05,3.018680842e-05,-4.935808870e-06,-1.992423147e-06,-1.143780481e-05,-2.119286741e-05,-1.726833627e-05,-3.520899973e-05,-1.966545777e-05,-3.481036224e-05,-2.836990234e-05,-4.055050879e-05,-3.385594475e-05,4.166646765e-04,8.584181722e-04
0.775,6.185424661e-05,3.103064352e-05,1.791116727e-05,9.479613267e-06,-9.619194628e-07,1.292566264e-05,1.448923000e-05,-6.552050719e-07,-7.895760371e-06,2.583212601e-07,-7.876896540e-06,-1.913399692e-05,-1.466741236e-05,-2.045767858e-05,-2.771463538e-05,-3.177372716e-05,3.455630798e-05,-5.542691290e-06,-2.756456925e-06,-9.348640154e-06,-1.822975978e-05,-1.500722319e-05,-3.214403159e-05,-1.766075570e-05,-3.121267696e-05,-2.564752968e-05,-3.674781545e-05,-3.238661884e-05,4.124114301e-04,8.687113301e-04
0.78,5.493972959e-05,3.517229181e-05,1.337814325e-05,8.862283870e-06,-3.170886043e-06,1.040285086e-05,1.292634522e-05,-3.306895246e-06,-9.328796663e-06,-5.612282101e-06,-9.514853518e-06,-2.170266665e-05,-1.716254556e-05,-2.156874677e-05,-2.795298505e-05,-3.164008004e-05,3.144511674e-05,-1.070382599e-05,-6.680443263e-06,-1.004041085e-05,-1.963460113e-05,-1.525343348e-05,-2.374861999e-05,-1.765852485e-05,-2.746092349e-05,-2.371697009e-05,-3.128609429e-05,-3.077265717e-05,4.158659554e-04,8.538370857e-04
0.785,5.107687458e-05,3.561084500e-05,1.010709255e-05,7.799872859e-06,-3.640502211e-06,1.115718786e-05,1.273041131e-05,-3.417064719e-06,-9.459492612e-06,-6.893464040e-06,-8.908391256e-06,-1.989253899e-05,-1.590138897e-05,-2.071305790e-05,-2.670605227e-05,-2.854093993e-05,2.585946636e-05,-1.469070919e-05,-8.956570795e-06,-1.067749553e-05,-2.136292097e-05,-1.537745172e-05,-1.558401899e-05,-1.729939010e-05,-2.397766958e-05,-2.186522529e-05,-2.631307366e-05,-2.786352689e-05,4.160110232e-04,8.538758851e-04
0.79,5.091122773e-05,3.108050835e-05,9.852076873e-06,7.603252478e-06,-9.471501449e-07,1.634042346e-05,1.193508808e-05,1.080363475e-06,-7.193063029e-06,-5.413956479e-07,-5.157398812e-06,-1.445419734e-05,-1.084315324e-05,-1.771718736e-05,-2.416236789e-05,-2.391215723e-05,2.397224152e-05,-1.442098998e-05,-7.880083502e-06,-1.013141731e-05,-2.116216980e-05,-1.449637357e-05,-1.588659699e-05,-1.623547229e-05,-2.319964944e-05,-2.090780921e-05,-2.567910654e-05,-2.515590249e-05,4.112480513e-04,8.612877481e-04
0.795,5.220667417e-05,2.585120478e-05,1.124876517e-05,8.038829319e-06,2.229862168e-06,2.012380687e-05,1.015718266e-05,6.265953879e-06,-4.925748885e-06,7.450050040e-06,-1.524651785e-06,-1.019060968e-05,-6.234107207e-06,-1.579100716e-05,-2.283277135e-05,-2.151741669e-05,2.545011916e-05,-1.234836671e-05,-5.880455991e-06,-9.656455399e-06,-2.032948824e-05,-1.398493186e-05,-2.622067677e-05,-1.599351917e-05,-2.623413785e-05,-2.183935705e-05,-3.007162543e-05,-2.472004616e-05,4.114395572e-04,8.472174310e-04
0.8,5.327081417e-05,2.480279641e-05,1.196226409e-05,7.999329927e-06,2.342373391e-06,1.642179866e-05,1.016957170e-05,6.575739514e-06,-5.144752847e-06,8.659775312e-06,-1.521897570e-06,-1.067572263e-05,-5.836266965e-06,-1.747644510e-05,-2.419427343e-05,-2.309907708e-05,2.432732263e-05,-1.270874312e-05,-5.754159209e-06,-1.042212918e-05,-2.096956096e-05,-1.491096669e-05,-3.803797445e-05,-1.722170147e-05,-3.034253294e-05,-2.376882990e-05,-3.496911132e-05,-2.610824390e-05,4.112323794e-04,8.551133770e-04
0.805,5.373072291e-05,2.802066802e-05,1.131355152e-05,7.052339323e-06,-8.353505338e-07,6.981650880e-06,1.445050329e-05,1.348693618e-06,-7.262197735e-06,1.522273131e-06,-4.826334697e-06,-1.459729963e-05,-8.990133512e-06,-2.128019863e-05,-2.654731628e-05,-2.632882654e-05,1.721506723e-05,-1.602583840e-05,-7.068220369e-06,-1.148362000e-05,-2.285536935e-05,-1.612403157e-05,-4.040895640e-05,-1.827956883e-05,-3.116962987e-05,-2.423389377e-05,-3.483485598e-05,-2.653372450e-05,4.222104037e-04,8.696183903e-04
0.81,5.309590812e-05,3.140057144e-05,1.078398451e-05,6.218410361e-06,-3.681420833e-06,6.775492628e-07,2.108424195e-05,-4.059575614e-06,-8.222656217e-06,-7.019293734e-06,-7.544635941e-06,-1.748053934e-05,-1.158746518e-05,-2.286513091e-05,-2.664083678e-05,-2.733413835e-05,8.877296546e-06,-1.829189309e-05,-6.781626714e-06,-1.061507782e-05,-2.349857588e-05,-1.532914444e-05,-3.107004388e-05,-1.689535144e-05,-2.727980771e-05,-2.165747745e-05,-2.903489254e-05,-2.408831618e-05,4.126980194e-04,8.727292898e-04
0.815,5.098804170e-05,3.213220183e-05,1.242383223e-05,7.270163063e-06,-2.212729902e-06,4.212314977e-06,2.488092869e-05,-3.793321506e-06,-5.661392430e-06,-8.830270206e-06,-6.136667730e-06,-1.633826407e-05,-1.027748255e-05,-1.929478946e-05,-2.298200219e-05,-2.462152184e-05,8.342653836e-06,-1.527960251e-05,-2.751639890e-06,-6.640751985e-06,-2.065813939e-05,-1.149603635e-05,-1.833650708e-05,-1.255743144e-05,-2.135019997e-05,-1.684026618e-05,-2.233646698e-05,-1.977975988e-05,3.991603858e-04,8.541700851e-04
0.82,4.923275057e-05,3.198318029e-05,1.708285082e-05,1.123449273e-05,4.276094726e-06,1.490805792e-05,2.303129756e-05,2.731531739e-06,1.250300386e-07,-2.371162213e-06,-5.410965504e-07,-1.200652006e-05,-5.161697098e-06,-1.165324695e-05,-1.702695077e-05,-1.999667588e-05,1.966807255e-05,-6.709430105e-06,4.224076255e-06,-4.215752874e-07,-1.414748388e-05,-5.640060351e-06,-1.171701219e-05,-6.738873936e-06,-1.665165319e-05,-1.174249381e-05,-1.926915392e-05,-1.590368101e-05,3.945253157e-04,8.370873544e-04
0.825,5.155208571e-05,3.443913017e-05,2.391071526e-05,1.739555762e-05,1.294744712e-05,2.395020530e-05,1.843526289e-05,1.100278653e-05,7.017448349e-06,7.142312319e-06,6.396279427e-06,-7.238112651e-06,1.252079014e-06,-3.629889045e-06,-1.131217638e-05,-1.602718321e-05,3.735354665e-05,3.978417232e-06,1.171462981e-05,6.229875256e-06,-5.553107293e-06,5.162261877e-07,-1.217577593e-05,-1.139071811e-06,-1.344997707e-05,-7.326315367e-06,-1.914013737e-05,-1.313454707e-05,3.911726939e-04,8.317740557e-04
0.83,5.926448363e-05,3.970026696e-05,3.101180410e-05,2.361934029e-05,2.018450558e-05,2.610877147e-05,1.637450979e-05,1.656895244e-05,1.300788197e-05,1.406422902e-05,1.181263208e-05,-3.518074488e-06,6.763920648e-06,1.878182893e-06,-7.067314323e-06,-1.343250869e-05,5.099811070e-05,1.297782336e-05,1.803195912e-05,1.197679393e-05,2.943231310e-06,5.950203373e-06,-1.297809867e-05,3.582749227e-06,-9.741323360e-06,-3.172321015e-06,-1.758302906e-05,-1.017628487e-05,3.900063338e-04,8.561307414e-04
0.835,6.806524157e-05,4.405301371e-05,3.637451744e-05,2.771890526e-05,2.419585296e-05,2.452825293e-05,1.849549654e-05,1.887337436e-05,1.700008541e-05,1.723871201e-05,1.473099648e-05,-3.489172793e-07,1.072530335e-05,4.537904674e-06,-3.870678950e-06,-1.116080115e-05,5.399775081e-05,1.845319208e-05,2.272566402e-05,1.615944292e-05,9.302180361e-06,1.024910643e-05,-9.081805113e-06,7.312863606e-06,-4.862972413e-06,1.003144700e-06,-1.241347761e-05,-6.178034580e-06,3.947566535e-04,8.681075684e-04
0.84,7.130575727e-05,4.427967350e-05,3.854080965e-05,2.872469273e-05,2.518022329e-05,2.545833504e-05,2.146840441e-05,1.989974952e-05,1.835881869e-05,1.867681640e-05,1.558154934e-05,2.802235770e-06,1.321038152e-05,5.533058778e-06,-1.105481856e-06,-8.370617853e-06,4.780490850e-05,2.018413820e-05,2.526587951e-05,1.814516131e-05,1.202876161e-05,1.272936772e-05,-3.194763781e-06,9.473517395e-06,-9.586392973e-07,4.221257080e-06,-6.510609715e-06,-2.476383000e-06,3.928226891e-04,8.728072446e-04
0.845,6.706126519e-05,4.135833635e-05,3.698629682e-05,2.706563755e-05,2.377284932e-05,2.989613755e-05,2.171659937e-05,2.031550394e-05,1.660319129e-05,1.918167102e-05,1.474454532e-05,4.847944597e-06,1.392249676e-05,5.552698848e-06,8.790190512e-07,-5.697344115e-06,3.888478825e-05,1.840529458e-05,2.436997526e-05,1.715067112e-05,1.072182407e-05,1.233919127e-05,-1.665966121e-06,9.122137961e-06,-5.009893440e-07,4.985042558e-06,-4.497612161e-06,-1.341048272e-06,4.045858507e-04,8.825535683e-04
0.85,6.029294878e-05,3.887553106e-05,3.225026052e-05,2.373688076e-05,2.005490226e-05,3.234047313e-05,1.992823265e-05,1.833975842e-05,1.189326537e-05,1.706612392e-05,1.203976638e-05,3.851896513e-06,1.228062912e-05,4.112335803e-06,1.063540998e-06,-4.684479569e-06,3.268446761e-05,1.375524298e-05,1.925205636e-05,1.291708296e-05,6.359495892e-06,8.601466946e-06,-6.273813016e-06,5.971205570e-06,-3.350339735e-06,2.811634174e-06,-7.614090194e-06,-3.469481931e-06,4.098488448e-04,8.659905001e-04
0.855,5.675243486e-05,3.843779300e-05,2.575535297e-05,1.948532597e-05,1.417012517e-05,2.776809051e-05,1.958430918e-05,1.253501615e-05,5.513397033e-06,1.117589558e-05,7.444309399e-06,-8.353686321e-07,8.241377695e-06,5.698760969e-07,-1.207292342e-06,-6.464130982e-06,3.031348364e-05,7.721687632e-06,1.124128210e-05,6.396552265e-06,7.266696149e-07,2.450673421e-06,-1.236892957e-05,9.386026838e-07,-7.092092733e-06,-1.324537872e-06,-1.281747360e-05,-7.433319814e-06,3.948520003e-04,8.510065345e-04
0.86,5.596000226e-05,3.792370650e-05,1.930482166e-05,1.480798395e-05,7.398658581e-06,1.800344859e-05,2.168812601e-05,4.626269145e-06,-5.348051142e-07,3.644411311e-06,1.864615562e-06,-7.625418739e-06,2.665743495e-06,-4.586320591e-06,-5.610390368e-06,-1.100050800e-05,2.953057932e-05,2.094575216e-06,3.505306580e-06,-3.907879352e-07,-4.527382655e-06,-3.979833992e-06,-1.497802138e-05,-4.340158830e-06,-9.783273169e-06,-5.854874008e-06,-1.646662011e-05,-1.144483700e-05,3.898801062e-04,8.768746373e-04
0.865,5.232569895e-05,3.445963206e-05,1.438045149e-05,1.040449600e-05,1.980657302e-06,9.843466660e-06,2.285802912e-05,-1.435459611e-06,-4.595642802e-06,-1.529560309e-06,-3.029743569e-06,-1.380958609e-05,-3.044040566e-06,-9.586963345e-06,-1.089499528e-05,-1.702089071e-05,2.764162465e-05,-2.229332277e-06,-1.183089579e-06,-5.302527269e-06,-8.211236022e-06,-8.432752993e-06,-1.446791487e-05,-8.328565626e-06,-1.134927678e-05,-9.508222627e-06,-1.768043911e-05,-1.483131807e-05,4.127498966e-04,8.596934383e-04
0.87,4.310225117e-05,2.807761777e-05,1.148112992e-05,7.118284213e-06,-4.713626356e-07,7.604885778e-06,1.950463294e-05,-3.179015155e-06,-6.162281014e-06,-2.357966956e-06,-5.785263657e-06,-1.731972098e-05,-7.457833672e-06,-1.251086308e-05,-1.530358824e-05,-2.231467474e-05,2.352077861e-05,-5.445060006e-06,-2.440227459e-06,-7.212294053e-06,-9.444217819e-06,-9.717081032e-06,-1.484731424e-05,-1.009081669e-05,-1.236340550e-05,-1.152085380e-05,-1.789780747e-05,-1.750132451e-05,4.032441638e-04,8.623522600e-04
0.875,3.272410444e-05,2.167192542e-05,9.902163083e-06,5.204509843e-06,-3.630251389e-07,9.232434021e-06,1.276718997e-05,-1.782417654e-06,-5.931862861e-06,-4.407561488e-07,-6.117153576e-06,-1.751541463e-05,-9.491619378e-06,-1.270752210e-05,-1.733670523e-05,-2.460459259e-05,1.783652633e-05,-7.837615302e-06,-2.144098385e-06,-6.698688529e-06,-8.133460054e-06,-8.431010692e-06,-1.785079937e-05,-9.641863105e-06,-1.274379527e-05,-1.172580768e-05,-1.838568530e-05,-1.882788658e-05,3.965251716e-04,8.523339980e-04
0.88,2.766148837e-05,1.788243717e-05,8.342317729e-06,3.926658118e-06,2.603360788e-07,1.013878471e-05,7.713229986e-06,-3.904184960e-07,-5.298282888e-06,1.334438312e-06,-5.108669602e-06,-1.496366585e-05,-8.884841137e-06,-1.131839728e-05,-1.678177666e-05,-2.304798839e-05,1.202895429e-05,-9.294727211e-06,-2.558549048e-06,-5.780141870e-06,-5.976494778e-06,-6.775913326e-06,-2.097258109e-05,-8.234039388e-06,-1.247626848e-05,-1.091281621e-05,-1.927922078e-05,-1.810161710e-05,4.049802341e-04,8.516248427e-04
0.885,2.851069341e-05,1.696780413e-05,6.112752705e-06,2.280171305e-06,-4.050145061e-07,9.235601469e-06,7.547772683e-06,-8.032505905e-07,-5.604451268e-06,1.730344002e-06,-4.488009419e-06,-1.111001139e-05,-6.676715766e-06,-1.039187568e-05,-1.517078532e-05,-1.922953885e-05,7.006072177e-06,-1.022726120e-05,-4.625608289e-06,-6.575063534e-06,-6.103686401e-06,-7.201916681e-06,-2.156662032e-05,-7.919284961e-06,-1.280937368e-05,-1.070037841e-05,-2.058653980e-05,-1.604384016e-05,4.007682212e-04,8.719924769e-04
0.89,2.980052313e-05,1.759242872e-05,3.834179725e-06,1.368487185e-07,-2.418662632e-06,9.391560876e-06,9.952849510e-06,-2.289476040e-06,-7.370342382e-06,1.294979307e-06,-5.408965353e-06,-8.011208852e-06,-4.902010661e-06,-1.120593491e-05,-1.471480985e-05,-1.616848945e-05,2.582559869e-06,-1.223556761e-05,-7.760015140e-06,-9.644022906e-06,-1.039126191e-05,-1.048529306e-05,-2.083051240e-05,-1.001427016e-05,-1.527165630e-05,-1.226735302e-05,-2.270294941e-05,-1.484452722e-05,4.071022031e-04,8.598428204e-04
0.895,2.758693397e-05,1.847221618e-05,2.604519593e-06,-1.673429619e-06,-4.440960694e-06,1.221922044e-05,1.009949080e-05,-3.334470415e-06,-9.877678851e-06,4.186589390e-07,-7.576541729e-06,-7.482588105e-06,-5.149831828e-06,-1.319684871e-05,-1.624723734e-05,-1.572584466e-05,-1.766402603e-06,-1.666693459e-05,-1.084114717e-05,-1.346692604e-05,-1.687179538e-05,-1.487525817e-05,-2.209580033e-05,-1.365185949e-05,-1.926831295e-05,-1.498480937e-05,-2.540325583e-05,-1.600470777e-05,3.820062147e-04,8.424362409e-04
0.9,2.431429788e-05,1.859224024e-05,2.279560116e-06,-2.554872376e-06,-5.367000665e-06,1.462976259e-05,6.647508529e-06,-3.669650754e-06,-1.158593717e-05,-1.361205346e-06,-9.457157461e-06,-9.703506155e-06,-7.073377125e-06,-1.453118189e-05,-1.827031066e-05,-1.696547338e-05,-5.594114440e-06,-2.233059655e-05,-1.319987386e-05,-1.580309658e-05,-2.090581219e-05,-1.751204603e-05,-2.595713936e-05,-1.624245250e-05,-2.187618726e-05,-1.677938853e-05,-2.727601463e-05,-1.852388159e-05,3.959474948e-04,8.212855378e-04
0.905,2.426295779e-05,1.680785419e-05,1.061633434e-06,-3.010370483e-06,-5.330905000e-06,1.233010479e-05,3.445713141e-06,-4.079442378e-06,-1.128853325e-05,-3.807108843e-06,-9.516840832e-06,-1.265499847e-05,-8.530523805e-06,-1.387941023e-05,-1.845768812e-05,-1.741774422e-05,-7.387326612e-06,-2.576542568e-05,-1.479156990e-05,-1.576686923e-05,-1.992482229e-05,-1.708196193e-05,-2.906595115e-05,-1.585396637e-05,-2.100700114e-05,-1.625123607e-05,-2.717682556e-05,-1.993554617e-05,4.207852670e-04,8.601850195e-04
0.91,2.616659824e-05,1.280971946e-05,-2.427133044e-06,-3.840554922e-06,-5.070784966e-06,6.175053171e-06,4.938035585e-06,-4.667869569e-06,-9.101918215e-06,-4.898999814e-06,-7.501235536e-06,-1.354868032e-05,-7.588291569e-06,-1.168996001e-05,-1.620986592e-05,-1.594869878e-05,-6.388571841e-06,-2.484262492e-05,-1.569994010e-05,-1.446282546e-05,-1.660430878e-05,-1.500188757e-05,-2.828485988e-05,-1.311408587e-05,-1.821987553e-05,-1.419787087e-05,-2.594452507e-05,-1.906121371e-05,4.040352727e-04,8.800664883e-04
0.915,2.393531114e-05,8.676025709e-06,-6.636171260e-06,-4.671745937e-06,-4.743128709e-06,2.820742949e-06,1.075466790e-05,-4.266597476e-06,-6.385891839e-06,-2.629771575e-06,-4.661310743e-06,-1.132528076e-05,-4.515843032e-06,-9.673921246e-06,-1.335205446e-05,-1.389832622e-05,-4.462398385e-06,-2.183187058e-05,-1.571163125e-05,-1.351191655e-05,-1.610584689e-05,-1.374076227e-05,-2.465833151e-05,-1.046500700e-05,-1.714996525e-05,-1.260723829e-05,-2.558674120e-05,-1.700286526e-05,3.872187504e-04,8.757703002e-04
0.92,1.528241308e-05,7.972836003e-06,-7.706058209e-06,-4.088756111e-06,-3.927273543e-06,7.580792065e-06,1.570564400e-05,-2.026226805e-06,-4.701843785e-06,2.044129234e-06,-2.766702198e-06,-7.752335935e-06,-1.649097133e-06,-9.057319712e-06,-1.203747541e-05,-1.314588439e-05,-5.261445707e-06,-2.170610854e-05,-1.454005934e-05,-1.326686207e-05,-1.989108619e-05,-1.411660261e-05,-2.207021371e-05,-9.587554904e-06,-1.900542648e-05,-1.227196833e-05,-2.652268754e-05,-1.521878802e-05,4.082527743e-04,8.467560127e-04
0.925,6.399478062e-06,1.192696466e-05,-3.674477965e-06,-1.706623553e-06,-2.834944217e-06,1.732867854e-05,1.501029478e-05,8.413791281e-07,-4.789599613e-06,5.112250428e-06,-2.809603147e-06,-5.819724105e-06,-1.168782489e-06,-9.467199073e-06,-1.228825832e-05,-1.358466032e-05,-1.066393865e-05,-2.682025861e-05,-1.252209321e-05,-1.286951021e-05,-2.349150035e-05,-1.469517622e-05,-2.258685110e-05,-9.960546561e-06,-2.083419161e-05,-1.203284570e-05,-2.666508038e-05,-1.351579912e-05,4.054514227e-04,8.665444084e-04
0.93,5.259998011e-06,1.687097412e-05,2.190646298e-06,4.663244838e-07,-2.816161565e-06,2.242456499e-05,8.958236777e-06,1.730937929e-06,-6.295793220e-06,3.244937821e-06,-4.426365455e-06,-6.992860277e-06,-3.065742572e-06,-9.564329933e-06,-1.217520434e-05,-1.331235632e-05,-1.806078698e-05,-3.387807608e-05,-1.089572015e-05,-1.189046858e-05,-2.160351289e-05,-1.390811328e-05,-2.451747504e-05,-1.004233374e-05,-1.914992138e-05,-1.063158196e-05,-2.411058377e-05,-1.089002607e-05,4.045414247e-04,8.583692567e-04
0.935,1.158446907e-05,1.710751232e-05,3.740741300e-06,-1.864046281e-07,-4.873649329e-06,1.674787245e-05,2.409735566e-06,-5.496554185e-07,-8.107709693e-06,-2.515216481e-06,-6.280480958e-06,-1.013608192e-05,-5.337964713e-06,-8.558738506e-06,-1.044002442e-05,-1.138574551e-05,-2.196326132e-05,-3.696127882e-05,-1.093816340e-05,-1.115233335e-05,-1.489373377e-05,-1.213770707e-05,-2.512816679e-05,-9.294758206e-06,-1.455023272e-05,-8.686898708e-06,-2.015248119e-05,-7.998995432e-06,3.855752590e-04,8.359861249e-04
0.94,1.698108036e-05,1.117891480e-05,-1.355640623e-06,-3.432374561e-06,-7.670620259e-06,5.061403303e-06,2.920513403e-07,-3.952764365e-06,-8.837104968e-06,-7.409561854e-06,-6.922268608e-06,-1.301466318e-05,-6.043325108e-06,-6.855605437e-06,-8.252297448e-06,-9.514402743e-06,-1.898908432e-05,-3.345574973e-05,-1.249390512e-05,-1.143153185e-05,-1.004280996e-05,-1.108432644e-05,-2.386332882e-05,-8.428922410e-06,-1.129539844e-05,-8.014152810e-06,-1.825854945e-05,-7.345688569e-06,3.864503158e-04,8.716885601e-04
0.945,1.577211250e-05,4.458789919e-06,-7.983927282e-06,-5.414432016e-06,-7.890786969e-06,-1.086573338e-06,3.761727705e-06,-4.770947564e-06,-7.394562580e-06,-7.461725601e-06,-5.566687456e-06,-1.443183264e-05,-4.952593756e-06,-5.261909823e-06,-7.766605259e-06,-1.016272063e-05,-1.135579449e-05,-2.635561473e-05,-1.354353857e-05,-1.178762073e-05,-1.225576526e-05,-1.128107474e-05,-2.207298911e-05,-7.847328257e-06,-1.207946326e-05,-8.999096227e-06,-1.972968718e-05,-1.011359638e-05,3.781061271e-04,8.796195210e-04
0.95,1.227922623e-05,4.146208140e-06,-8.290157460e-06,-2.420223849e-06,-3.439383100e-06,4.692474124e-06,1.000907186e-05,-1.322487981e-06,-3.705459435e-06,-2.980587128e-06,-2.484614313e-06,-1.462482386e-05,-3.217170548e-06,-3.909686084e-06,-9.165647965e-06,-1.310593742e-05,-5.239594095e-06,-2.077778822e-05,-1.182695144e-05,-1.013006978e-05,-1.889797365e-05,-1.111181798e-05,-2.063195791e-05,-6.722853436e-06,-1.455860440e-05,-9.524031210e-06,-2.156677030e-05,-1.354361417e-05,3.930475824e-04,8.639064707e-04
0.955,1.427073069e-05,1.145615367e-05,-5.704395286e-07,4.551840709e-06,3.762578557e-06,1.659413178e-05,1.487545163e-05,4.155270378e-06,9.407520566e-07,2.467550510e-06,1.177702634e-06,-1.394070529e-05,-1.749082011e-06,-2.228019502e-06,-9.951661649e-06,-1.484625687e-05,-5.578385391e-06,-1.916462233e-05,-7.287097303e-06,-5.808852449e-06,-2.220679824e-05,-8.800761625e-06,-1.940629551e-05,-4.155973588e-06,-1.422873251e-05,-7.208244998e-06,-1.983089437e-05,-1.293791517e-05,3.984345439e-04,8.911699064e-04
0.96,2.078367424e-05,1.963290264e-05,7.885001895e-06,1.000730662e-05,8.958512039e-06,2.242964478e-05,1.553894225e-05,7.626176786e-06,4.607476723e-06,5.926433513e-06,4.146319899e-06,-1.185963009e-05,-2.914973379e-07,1.045758806e-07,-7.601381575e-06,-1.209860890e-05,-1.198350606e-05,-2.013771690e-05,-2.562415194e-06,-9.808292711e-07,-1.818089844e-05,-4.867842306e-06,-1.873070834e-05,-7.969782138e-07,-1.011420395e-05,-2.434732371e-06,-1.462052058e-05,-6.774977670e-06,3.797091059e-04,8.469039642e-04
0.965,2.145758932e-05,2.092896144e-05,7.937954272e-06,9.401802960e-06,9.089638987e-06,1.640280850e-05,1.213760107e-05,7.270646483e-06,6.219945882e-06,7.238812833e-06,5.924874447e-06,-8.213018867e-06,1.824389802e-06,2.552461333e-06,-2.759718544e-06,-5.929944975e-06,-2.019575643e-05,-2.206422712e-05,-8.672892304e-07,1.184753132e-06,-1.145153796e-05,-1.970594601e-06,-2.014258873e-05,1.441906809e-06,-6.263906005e-06,1.508861289e-06,-1.068182800e-05,8.228815704e-07,3.886783613e-04,8.758319163e-04
0.97,9.361509813e-06,1.405274700e-05,-7.650752062e-07,4.127254859e-06,5.834715559e-06,4.897914157e-06,6.646623485e-06,5.125182195e-06,6.348591496e-06,7.684741522e-06,6.881874179e-06,-4.083129651e-06,4.363685804e-06,4.031606802e-06,1.233105842e-06,-9.651954692e-07,-2.442905241e-05,-2.371227158e-05,-2.350731265e-06,8.353366896e-08,-9.358369838e-06,-1.774347864e-06,-2.309145836e-05,1.566185556e-06,-6.526871346e-06,1.861061639e-06,-1.149784968e-05,4.018508655e-06,3.840799106e-04,8.748569788e-04
0.975,-7.245374211e-06,6.442711468e-06,-9.578306898e-06,-6.533224574e-08,3.697184311e-06,-7.179323362e-07,2.758960956e-06,4.464429315e-06,6.349343573e-06,7.409981398e-06,7.589018802e-06,-2.687433070e-06,5.781281818e-06,4.053277544e-06,1.247865998e-06,-1.690863344e-06,-2.389376367e-05,-2.617314066e-05,-4.743470140e-06,-2.092204260e-06,-1.380158898e-05,-3.421422590e-06,-2.499886694e-05,6.074364942e-07,-1.005095082e-05,-9.826978005e-07,-1.574235983e-05,7.849275580e-07,3.998966596e-04,8.922976130e-04
0.98,-1.322895497e-05,4.573459706e-06,-9.045866913e-06,8.359347144e-07,4.932042438e-06,3.314245571e-06,1.679558583e-06,6.052139760e-06,6.621884477e-06,5.374313750e-06,7.722267102e-06,-4.948882861e-06,4.744133310e-06,2.860614847e-06,-1.931129704e-06,-6.881450234e-06,-1.850108808e-05,-2.641594191e-05,-4.626670507e-06,-2.298655725e-06,-1.789911994e-05,-4.086801279e-06,-2.122569099e-05,4.852998984e-07,-1.143068398e-05,-3.682062026e-06,-1.720777298e-05,-4.749751122e-06,3.610689351e-04,8.609476200e-04
0.985,-1.816836417e-06,1.060280528e-05,-1.269335255e-06,4.648586804e-06,7.430579486e-06,1.004685993e-05,4.903376233e-06,7.276179008e-06,6.334699907e-06,1.210777910e-06,6.682022915e-06,-1.067586644e-05,1.371680100e-06,1.598707608e-06,-5.692177701e-06,-1.281643229e-05,-1.543931322e-05,-2.605801116e-05,-3.290811884e-06,-1.042747980e-06,-1.611170996e-05,-3.177858204e-06,-1.423938146e-05,1.484963049e-06,-8.278933343e-06,-4.118783200e-06,-1.414213501e-05,-7.862761678e-06,3.892365920e-04,8.706563454e-04
0.99,1.388295523e-05,1.615844592e-05,5.515805949e-06,6.417385566e-06,7.377146882e-06,1.030278729e-05,8.301583267e-06,5.665559689e-06,4.618825024e-06,-2.872261337e-06,4.231551701e-06,-1.412982036e-05,-1.983666899e-06,7.907986277e-07,-6.638955909e-06,-1.390372588e-05,-1.340568334e-05,-2.144483148e-05,-1.932950732e-06,1.501806654e-07,-8.279682800e-06,-1.399432409e-06,-6.981559088e-06,2.364822226e-06,-2.463934276e-06,-2.357829475e-06,-7.823272417e-06,-6.517340500e-06,3.665834846e-04,8.325072910e-04
0.995,2.000686427e-05,1.914505168e-05,1.477521514e-06,3.515228790e-06,4.339715480e-06,4.844937639e-06,1.324707936e-05,1.950559712e-06,2.267938926e-06,-4.119144780e-06,2.105304238e-06,-1.562960641e-05,-3.268820378e-06,1.198797363e-06,-6.291511653e-06,-1.257577176e-05,-2.156235539e-05,-2.397407439e-05,-5.374159118e-06,-1.812300322e-06,-4.821826707e-06,-2.065018330e-06,-9.140296718e-06,1.426585900e-06,-1.182612510e-06,-1.649007061e-06,-6.973133766e-06,-4.785060540e-06,3.980855022e-04,9.295036742e-04
1,7.317275593e-06,8.828226038e-06,-3.193905789e-06,-8.671818446e-09,9.027280781e-07,1.176506088e-06,7.671850953e-06,-4.869668670e-09,4.723441188e-07,-1.159588057e-06,7.786452153e-07,-7.188891262e-06,-1.129647546e-06,9.211968581e-07,-2.918777428e-06,-5.457723466e-06,-1.507004337e-05,-1.471077937e-05,-4.755393447e-06,-2.232035934e-06,-3.926854258e-06,-2.025199225e-06,-7.631895347e-06,-1.634869682e-07,-2.171629216e-06,-1.302241146e-06,-5.182689410e-06,-2.328915720e-06,2.301092204e-04,5.070424417e-04
