Time,FP1,AFF5,AFz,F1,FC5,FC1,T7,C3,Cz,CP5,CP1,P7,P3,Pz,POz,O1,FP2,AFF6,F2,FC2,FC6,C4,T8,CP2,CP6,P4,P8,O2,HEOG,VEOG,
-0.1,-2.546770517e-06,-2.528543389e-06,-3.044065766e-06,-2.712100878e-06,-3.868974609e-07,1.136559135e-07,-4.536638250e-06,6.083371211e-06,7.722312999e-06,1.233871157e-05,1.372570174e-05,1.275898752e-05,1.679102718e-05,2.238329768e-05,2.649263821e-05,2.037313823e-05,6.594566910e-08,2.745440537e-06,-1.654046291e-07,3.587187339e-06,1.147680059e-05,1.187099797e-05,1.523955804e-05,1.638014810e-05,1.724658174e-05,2.464379646e-05,2.704503338e-05,2.999528548e-05,-1.177385610e-05,-4.769253821e-06
-0.095,-1.051235276e-05,-9.414976659e-06,-1.033594682e-05,-1.021731459e-05,-4.569495467e-06,-4.009469154e-06,-1.462836655e-05,8.729951061e-06,9.103119431e-06,2.012096190e-05,2.058344427e-05,1.756582140e-05,2.530212086e-05,3.579735495e-05,4.302103420e-05,2.979392720e-05,-5.939477215e-06,-2.154316228e-06,-5.086293811e-06,1.770114848e-06,1.334465144e-05,1.566039360e-05,1.929790602e-05,2.434850139e-05,2.316308069e-05,3.797775588e-05,4.164572144e-05,4.672718606e-05,-7.086638005e-07,-9.999641402e-06
-0.09,-1.773258226e-05,-1.592914142e-05,-1.750249152e-05,-1.759121002e-05,-8.104749254e-06,-1.227446044e-05,-1.403933931e-05,-1.245504636e-06,-2.255990101e-06,5.815067052e-06,7.354294101e-06,4.044341108e-06,1.076200251e-05,2.096455860e-05,2.775144479e-05,1.320449812e-05,-1.512837076e-05,-1.297630733e-05,-1.317825612e-05,-7.702554938e-06,-3.360512442e-06,2.429744707e-06,3.325109066e-06,1.073123500e-05,7.480203250e-06,2.121965035e-05,2.420911223e-05,2.834863647e-05,-3.595264390e-06,-5.258603130e-06
-0.085,-2.119200301e-05,-2.049857883e-05,-2.265572341e-05,-2.231096559e-05,-9.426399354e-06,-1.876425057e-05,-7.196808248e-06,-1.194359096e-05,-8.963997376e-06,-8.249406579e-06,-8.283919646e-07,-3.758929758e-06,3.107219933e-06,1.529129540e-05,2.313303898e-05,6.332477851e-06,-2.098368283e-05,-1.885341507e-05,-1.886104585e-05,-1.368358431e-05,-1.430595323e-05,-4.520321000e-06,-2.771817017e-06,4.884947634e-06,2.000957536e-06,1.552995171e-05,1.870043868e-05,2.387728992e-05,-9.794376852e-06,-3.666288396e-06
-0.08,-1.904863403e-05,-2.068128689e-05,-2.192446968e-05,-2.099761840e-05,-1.241718352e-05,-1.974708259e-05,-2.216143797e-06,-1.938694730e-05,-1.075628267e-05,-1.781710811e-05,-5.376127802e-06,-8.044592163e-06,-1.297946119e-06,1.120019739e-05,1.872427919e-05,2.367377882e-06,-2.179832565e-05,-1.981422295e-05,-1.944998392e-05,-1.470312288e-05,-1.979666268e-05,-7.809964353e-06,-5.271219800e-06,1.818334103e-06,4.502801056e-08,1.118646202e-05,1.324016131e-05,1.987925266e-05,-7.269582322e-06,-5.790042855e-06
-0.075,-1.370064240e-05,-1.702084188e-05,-1.626670494e-05,-1.456493461e-05,-1.727865693e-05,-1.395167966e-05,-4.664101573e-06,-1.675448923e-05,-5.052487448e-06,-1.415840838e-05,-1.058119047e-06,-4.555704479e-06,2.665504690e-06,1.434944118e-05,2.124788005e-05,6.378730887e-06,-1.745521893e-05,-1.556126025e-05,-1.448970764e-05,-9.350109926e-06,-1.492972156e-05,-3.981725461e-06,-1.955927509e-06,5.619516274e-06,4.876860084e-06,1.413259424e-05,1.474403568e-05,2.269330100e-05,7.800946172e-06,-4.141746142e-06
-0.07,-7.567097856e-06,-1.023439580e-05,-7.792617961e-06,-5.194654784e-06,-1.839615155e-05,-4.139234076e-06,-7.821884583e-06,-7.238115168e-06,2.491079528e-06,-4.764242482e-06,4.791357958e-06,-1.174838825e-07,6.440342792e-06,1.537562766e-05,2.078979305e-05,8.857275609e-06,-1.005266873e-05,-9.156276767e-06,-6.270146007e-06,-1.450855049e-06,-6.217048823e-06,9.189765347e-07,-7.009397925e-09,8.701379262e-06,7.603519677e-06,1.457385796e-05,1.391044942e-05,2.111187776e-05,-5.001242649e-06,-1.281609265e-06
-0.065,-2.967540748e-06,-2.940466470e-06,-3.622765966e-07,3.060821762e-06,-1.108518846e-05,4.667058721e-06,-3.892305004e-06,1.901437789e-06,7.582889656e-06,1.304045813e-06,7.363860177e-06,1.462418261e-06,6.049747709e-06,1.248695844e-05,1.629201840e-05,7.147049414e-06,-2.679425164e-06,-3.050216473e-06,1.488049968e-06,5.080160994e-06,1.220800274e-06,4.008490932e-06,4.599547372e-08,8.825751088e-06,5.952986735e-06,1.130466499e-05,1.041277128e-05,1.557966228e-05,-5.105081532e-06,-1.676513427e-06
-0.06,-1.137901385e-06,1.527388625e-06,3.165633420e-06,6.729892125e-06,3.228291411e-07,7.870605469e-06,4.949565793e-06,3.259398136e-06,6.516693946e-06,-2.515689067e-06,2.514530980e-06,-3.334173041e-06,-1.755367690e-06,3.184419874e-06,4.954301868e-06,-1.645506704e-06,1.096518010e-06,-4.181744905e-07,5.104334768e-06,6.458522960e-06,1.539405551e-06,1.649066188e-06,-3.736853089e-06,3.113600480e-06,-2.144070630e-06,1.547388322e-06,7.548958963e-07,4.185835263e-06,-5.001242625e-06,2.810020138e-06
-0.055,-1.812403157e-06,1.349910890e-06,2.399157562e-06,5.044475120e-06,5.807722834e-06,5.050296017e-06,7.170649599e-06,-2.169134731e-06,9.521661726e-07,-1.112780331e-05,-6.168750152e-06,-1.132622278e-05,-1.222654963e-05,-8.020057123e-06,-8.479715810e-06,-1.290496325e-05,3.890422571e-07,-1.781988150e-06,3.829554691e-06,2.815589531e-06,-4.460670594e-06,-4.694540316e-06,-9.334696029e-06,-5.583254617e-06,-1.210993890e-05,-1.042315941e-05,-1.163943770e-05,-8.311408708e-06,1.571639220e-05,3.165099054e-06
-0.05,-2.310861627e-06,-9.860138147e-07,5.576186171e-07,1.545772997e-06,1.098607509e-06,5.059526728e-07,-3.001124598e-06,-6.922249165e-06,-4.591679244e-06,-1.501338385e-05,-1.258397432e-05,-1.698367932e-05,-1.898016672e-05,-1.642208687e-05,-1.906053246e-05,-2.104231023e-05,-1.556879145e-06,-4.208122248e-06,8.312370136e-07,-2.187131416e-06,-1.190407822e-05,-1.108901280e-05,-1.371417658e-05,-1.315574841e-05,-1.871790364e-05,-2.009996693e-05,-2.257459070e-05,-1.854721708e-05,-4.148710269e-06,6.157248473e-06
-0.045,5.734298581e-07,-6.178357296e-07,1.697229253e-06,1.186011731e-06,-6.781932524e-06,-4.687498448e-07,-1.665326473e-05,-4.446572171e-06,-5.849756610e-06,-9.361952450e-06,-1.260392676e-05,-1.610056317e-05,-1.815922888e-05,-1.896822851e-05,-2.326819159e-05,-2.211202050e-05,4.267349313e-08,-3.034769139e-06,5.820044127e-07,-3.935180363e-06,-1.498111758e-05,-1.304993149e-05,-1.308164587e-05,-1.587892112e-05,-1.868870715e-05,-2.400183353e-05,-2.778643075e-05,-2.420355453e-05,3.280128143e-06,5.378236566e-06
-0.04,6.957007802e-06,4.387929958e-06,6.536395231e-06,5.289879528e-06,-7.795093457e-06,3.103527689e-06,-1.917678092e-05,3.577304436e-06,-3.041938627e-06,4.667079215e-07,-8.439661674e-06,-1.027138269e-05,-1.258580122e-05,-1.767290751e-05,-2.303508441e-05,-1.791267812e-05,6.073646102e-06,2.996183034e-06,4.206144063e-06,-1.397410717e-06,-1.229625656e-05,-1.000965103e-05,-7.367975546e-06,-1.419694993e-05,-1.425147044e-05,-2.338665678e-05,-2.755148164e-05,-2.678671224e-05,1.045693491e-05,5.650184498e-06
-0.035,1.259435811e-05,1.026186547e-05,1.119873242e-05,9.725002105e-06,-8.659752084e-07,6.818311601e-06,-7.132771406e-06,8.856506542e-06,-5.445484864e-07,4.726343723e-06,-6.095976275e-06,-5.207672625e-06,-8.776565945e-06,-1.742515934e-05,-2.352161846e-05,-1.393167076e-05,1.178010187e-05,9.637119782e-06,8.061050772e-06,1.874789301e-06,-7.050118565e-06,-5.705081522e-06,-1.348128975e-06,-1.206383208e-05,-1.075668793e-05,-2.244668207e-05,-2.572093469e-05,-2.954500773e-05,2.916349694e-06,2.252585421e-06
-0.03,1.287983629e-05,1.165801132e-05,1.135975761e-05,9.460406104e-06,5.700163887e-06,5.939846757e-06,7.992139853e-06,5.466534744e-06,-2.088731613e-06,-2.543937502e-07,-8.823335465e-06,-4.619750452e-06,-1.017456875e-05,-2.085683462e-05,-2.754076869e-05,-1.366630034e-05,1.181554165e-05,1.135825335e-05,7.901585957e-06,1.866623160e-06,-2.602532511e-06,-4.079781556e-06,-4.548384584e-07,-1.267807060e-05,-1.104145675e-05,-2.358156510e-05,-2.514199105e-05,-3.354651721e-05,9.102397282e-06,6.047197497e-06
-0.025,8.507003967e-06,8.486366069e-06,7.682664363e-06,4.974495282e-06,5.964439334e-06,1.416175034e-06,1.379480280e-05,-3.109858258e-06,-6.059353645e-06,-7.685097556e-06,-1.299469543e-05,-5.702693987e-06,-1.308265963e-05,-2.479793415e-05,-3.168192829e-05,-1.454219976e-05,6.986924065e-06,7.935777310e-06,4.349489730e-06,-7.738596288e-07,1.567424188e-06,-4.581008191e-06,-4.477221863e-06,-1.444269816e-05,-1.195525053e-05,-2.410662043e-05,-2.392175472e-05,-3.529843701e-05,-2.106831796e-06,6.814455252e-06
-0.02,5.770205713e-06,6.816188463e-06,5.843984246e-06,2.624130889e-06,4.713564226e-06,-3.973743944e-07,1.107914598e-05,-6.817000082e-06,-6.562234101e-06,-6.965754207e-06,-1.136155882e-05,-1.901318305e-06,-1.022916745e-05,-2.281315434e-05,-2.913424902e-05,-1.046478903e-05,4.299790861e-06,5.389635518e-06,2.865698145e-06,-9.308599044e-07,8.452307912e-06,-2.599166465e-06,-6.737683810e-06,-1.219316780e-05,-7.565782862e-06,-1.876210399e-05,-1.749414304e-05,-2.954457194e-05,1.036713676e-05,8.938905712e-07
-0.015,9.774969802e-06,1.158524266e-05,1.003578165e-05,7.337588453e-06,1.078612363e-05,4.986367945e-06,1.062621271e-05,5.530491732e-07,-1.305889597e-07,5.019623016e-06,-1.108337405e-06,9.046973495e-06,9.236354665e-07,-1.229994641e-05,-1.735447105e-05,7.881127900e-07,9.070832915e-06,9.132528716e-06,7.277224370e-06,4.736615977e-06,1.820587740e-05,4.625734461e-06,-1.104077672e-06,-3.399512898e-06,3.546508631e-06,-6.271634658e-06,-4.908597801e-06,-1.547652321e-05,3.319816988e-06,-5.737481493e-06
-0.01,1.762986523e-05,1.930856980e-05,1.695306936e-05,1.551870912e-05,2.343689767e-05,1.371832228e-05,1.748654591e-05,1.403102946e-05,8.944677685e-06,1.953372880e-05,1.163415863e-05,2.054962945e-05,1.384599316e-05,1.113594491e-06,-2.548487756e-06,1.323913643e-05,1.776190665e-05,1.678992782e-05,1.399210066e-05,1.237602008e-05,2.568855698e-05,1.319092149e-05,1.031466141e-05,7.263933117e-06,1.491428898e-05,7.198365337e-06,7.944617363e-06,2.987389432e-07,-1.510034288e-06,-3.384307617e-06
-0.005,2.007510091e-05,2.029735368e-05,1.789096539e-05,1.713086460e-05,2.996727403e-05,1.599861737e-05,2.343168998e-05,2.130746755e-05,1.138069920e-05,2.353932046e-05,1.639721178e-05,2.222608537e-05,1.809158439e-05,7.546356462e-06,4.878215367e-06,1.715873330e-05,2.050190014e-05,1.958894748e-05,1.434757412e-05,1.340891210e-05,2.467364044e-05,1.516878231e-05,1.802204724e-05,1.103593283e-05,1.748744210e-05,1.259157352e-05,1.290090444e-05,8.510818964e-06,-3.162722007e-06,3.540655501e-06
0,1.100037499e-05,9.169153575e-06,7.789203157e-06,6.004976659e-06,1.944579880e-05,5.917641486e-06,1.735246203e-05,1.445223761e-05,2.067051011e-06,1.217229677e-05,8.364048266e-06,1.039614492e-05,9.553262176e-06,2.305828766e-06,2.901960217e-07,8.674050192e-06,1.151992766e-05,1.172491449e-05,3.640971588e-06,3.355600820e-06,1.450313590e-05,6.885445109e-06,1.467506242e-05,3.784427184e-06,8.940317880e-06,6.835726091e-06,7.807579783e-06,5.936803247e-06,-7.502266832e-06,3.947188717e-06
0.005,-5.195280000e-06,-8.024167538e-06,-8.411895684e-06,-1.255627254e-05,-3.346294644e-06,-1.151641690e-05,2.072683870e-07,-2.126984332e-06,-1.373878414e-05,-6.146260256e-06,-6.235432609e-06,-7.016300082e-06,-4.661844252e-06,-8.743628429e-06,-9.994311736e-06,-5.435686535e-06,-3.863742100e-06,-2.530279648e-06,-1.279574212e-05,-1.237882495e-05,1.623572347e-06,-6.049158147e-06,3.228824527e-06,-8.757352706e-06,-2.909368722e-06,-3.243205534e-06,-4.852259645e-07,-9.564579614e-07,-5.919028627e-07,-1.039437203e-05
0.01,-1.691332151e-05,-1.881821658e-05,-1.958026442e-05,-2.575756785e-05,-2.122032515e-05,-2.419117163e-05,-1.464656610e-05,-1.556874603e-05,-2.432152631e-05,-1.716779922e-05,-1.526566314e-05,-1.702845803e-05,-1.227880998e-05,-1.406868693e-05,-1.423917255e-05,-1.335388980e-05,-1.381602458e-05,-1.227965590e-05,-2.365102736e-05,-2.265622333e-05,-5.956641202e-06,-1.310796077e-05,-5.465268850e-06,-1.553318974e-05,-6.888287327e-06,-6.790004612e-06,-2.239763480e-06,-1.930572899e-06,-4.210290059e-06,-5.616430375e-06
0.015,-1.631308854e-05,-1.660801764e-05,-1.882407622e-05,-2.524578196e-05,-2.225737906e-05,-2.404153761e-05,-1.632439856e-05,-1.639143459e-05,-2.213116440e-05,-1.358056391e-05,-1.165006240e-05,-1.334872126e-05,-7.075036973e-06,-7.216830709e-06,-6.316126313e-06,-8.912835673e-06,-1.149322209e-05,-1.057829876e-05,-2.206225365e-05,-2.086181519e-05,-5.330302787e-06,-8.621991932e-06,-3.269758478e-06,-1.044668478e-05,1.042492391e-06,9.128052643e-07,5.975544418e-06,7.152302503e-06,-1.718891375e-05,-4.798650400e-06
0.02,-6.414184628e-06,-6.792700169e-06,-9.589371271e-06,-1.451627282e-05,-1.158754827e-05,-1.401791303e-05,-8.161899262e-06,-6.496923464e-06,-1.035911947e-05,-7.011368882e-07,6.117197546e-07,-1.421431261e-06,5.932602631e-06,7.354721355e-06,8.875022934e-06,3.406999635e-06,-1.183357098e-06,-7.454592076e-07,-1.158644969e-05,-1.058095253e-05,2.729578246e-07,3.139955605e-06,7.644906333e-06,2.121793283e-06,1.422459880e-05,1.425811932e-05,1.836423543e-05,2.053881658e-05,-1.112466362e-05,-5.597192422e-06
0.025,2.824117842e-06,-2.816261590e-07,-1.252916399e-06,-4.312299472e-06,-4.038801764e-06,-3.962550029e-06,-2.430748811e-06,4.081069277e-06,1.063750601e-06,9.819130707e-06,1.101847630e-05,7.905415086e-06,1.611654369e-05,1.906237352e-05,2.068608736e-05,1.372546902e-05,6.999423300e-06,7.974088461e-06,-1.773072926e-06,-1.022984912e-06,5.990681752e-06,1.267033491e-05,1.770071305e-05,1.210909235e-05,2.201429692e-05,2.311489823e-05,2.574036899e-05,2.847019854e-05,-3.946940878e-06,-3.639365265e-06
0.03,4.558427326e-06,-2.041493143e-06,4.620437320e-07,-1.644937668e-06,-7.083237081e-06,-4.955582088e-07,-5.372979810e-06,7.397680140e-06,5.312550834e-06,1.107173098e-05,1.253815985e-05,8.767716288e-06,1.723545583e-05,2.118036519e-05,2.263816931e-05,1.606219465e-05,7.361837898e-06,9.903071645e-06,1.360449804e-06,2.304990842e-06,9.468678888e-06,1.429862999e-05,1.925050924e-05,1.343785092e-05,1.949305323e-05,2.220546811e-05,2.356743835e-05,2.620858348e-05,-4.094145972e-06,-3.842331120e-06
0.035,4.236257716e-07,-7.282094920e-06,-2.129754371e-06,-4.303455699e-06,-1.403116178e-05,-1.833484286e-06,-1.091088238e-05,4.021675249e-06,3.911398817e-06,5.555282772e-06,6.871316627e-06,4.028816463e-06,1.160960691e-05,1.574876884e-05,1.689069151e-05,1.216412587e-05,2.784977341e-06,7.154007166e-06,-2.071612151e-07,1.602530604e-06,1.061169264e-05,1.015450674e-05,1.237147508e-05,8.457185638e-06,1.052850727e-05,1.458548829e-05,1.438811815e-05,1.711076140e-05,-1.023034884e-05,1.236209182e-06
0.04,-3.337977270e-06,-8.368527972e-06,-3.207018479e-06,-5.593637828e-06,-1.388486876e-05,-2.026416737e-06,-9.454186661e-06,7.797609137e-08,2.815729727e-06,7.032591161e-08,7.505605217e-07,-2.732475079e-08,5.530243648e-06,9.446563862e-06,1.001558224e-05,7.387045032e-06,-3.770372115e-07,5.157454174e-06,-7.985107908e-07,2.172141462e-06,9.091469236e-06,5.944018218e-06,2.558229812e-06,3.548308995e-06,2.341599662e-06,6.867012034e-06,3.786299493e-06,7.883403407e-06,-2.003681448e-06,-8.893624431e-08
0.045,-3.170999126e-06,-3.485873622e-06,-5.902115088e-07,-2.556988828e-06,-4.481528016e-06,1.505359961e-06,2.676517789e-07,-3.129602316e-07,4.997512791e-06,-2.067021397e-06,-1.434290720e-06,-7.216831336e-07,2.346212839e-06,6.251478507e-06,6.055483494e-06,4.692343349e-06,4.329053094e-07,5.948178138e-06,1.910393015e-06,5.610087524e-06,3.999800855e-06,4.407352695e-06,-5.170504162e-06,1.963476532e-06,-1.569159406e-06,2.508728318e-06,-4.500286084e-06,2.312180708e-06,9.365009854e-06,-5.851630060e-07
0.05,-6.531606493e-07,2.573029696e-06,2.650846900e-06,1.718006703e-06,6.421221417e-06,5.843546291e-06,1.045044765e-05,1.548170393e-06,8.059490717e-06,-2.810403995e-06,-6.465215999e-07,-7.852330024e-08,7.827664098e-07,4.974004365e-06,4.282672087e-06,3.301841146e-06,2.603889361e-06,6.956143829e-06,5.054484068e-06,8.640001770e-06,-3.910334745e-06,3.691965661e-06,-9.110391799e-06,1.841133179e-06,-2.984332535e-06,2.190956704e-07,-9.544375898e-06,-1.097484800e-07,1.216177789e-06,1.675773756e-06
0.055,1.173309406e-06,4.909576923e-06,2.856063732e-06,3.008974861e-06,1.120873187e-05,7.146795820e-06,1.369856096e-05,2.380773393e-06,8.485919111e-06,-4.600228326e-06,6.489010091e-08,-4.506497414e-07,-1.201810513e-06,2.973155865e-06,2.456616225e-06,1.834399700e-06,2.938378270e-06,5.457482904e-06,4.947468432e-06,7.911812705e-06,-1.106886698e-05,1.183002103e-06,-9.554132191e-06,2.789854078e-07,-4.932185873e-06,-2.328730049e-06,-1.115450017e-05,-9.359945184e-07,-4.028196770e-06,5.798999211e-06
0.06,1.827939034e-06,3.729779706e-06,3.075327125e-07,1.162549164e-06,9.948253842e-06,5.465789355e-06,1.022460673e-05,1.807147663e-06,6.415933666e-06,-6.071788590e-06,-4.380990905e-08,-1.144694672e-06,-2.941212348e-06,3.579434156e-07,4.039617887e-07,8.132775049e-07,1.673052768e-06,2.354568699e-06,1.674591321e-06,4.259407681e-06,-1.334963943e-05,-2.732257622e-06,-7.083620068e-06,-2.487507269e-06,-7.666436014e-06,-4.931630368e-06,-8.651152608e-06,-2.137543115e-08,9.848726156e-06,5.447806656e-06
0.065,3.017036914e-06,2.763597896e-06,-1.517676305e-06,-4.034951613e-07,7.382385407e-06,4.158265429e-06,5.386307186e-06,2.495802142e-06,5.231142304e-06,-3.715998781e-06,8.731143135e-07,1.067736063e-07,-2.150644083e-06,-3.422353899e-07,-1.427548333e-07,1.641211324e-06,1.482587697e-06,8.865484427e-07,-1.281702322e-06,1.525392257e-06,-9.457022392e-06,-5.233584184e-06,-2.805974263e-06,-3.649855555e-06,-8.797611326e-06,-5.368084347e-06,-1.954783574e-06,3.684258373e-06,1.298176774e-05,-2.763285904e-06
0.07,5.466406401e-06,4.209308929e-06,-2.166952916e-07,7.406170081e-07,5.777414397e-06,5.503284619e-06,3.017854870e-06,6.006748220e-06,7.229994572e-06,3.047254651e-06,4.046908663e-06,3.654729044e-06,1.613720544e-06,2.264169885e-06,1.856496519e-06,4.336757269e-06,3.741061559e-06,2.619231838e-06,-1.149511972e-06,2.095417480e-06,-1.657792517e-06,-4.417971101e-06,1.236247735e-06,-1.506433706e-06,-6.318920415e-06,-2.371298969e-06,7.137445216e-06,9.832413221e-06,-3.704071710e-06,-7.221354683e-06
0.075,7.676303149e-06,6.756453081e-06,3.188165085e-06,3.449854248e-06,3.762917995e-06,8.326435960e-06,3.301550598e-06,1.012815888e-05,1.110759294e-05,1.011587025e-05,8.064202305e-06,7.238866547e-06,5.957190985e-06,6.572867560e-06,5.452993879e-06,7.401665508e-06,7.003214797e-06,5.875135083e-06,1.428119249e-06,4.746997696e-06,6.513030852e-06,-1.071159115e-06,3.489963823e-06,2.714188174e-06,-6.944800344e-07,2.904655941e-06,1.555916313e-05,1.623582689e-05,-5.386131684e-07,-1.115114643e-06
0.08,7.908705068e-06,8.074140751e-06,5.963700447e-06,4.961753688e-06,1.085967223e-06,1.003904035e-05,5.484876543e-06,1.118793145e-05,1.390390814e-05,1.254056843e-05,1.041564064e-05,8.533898224e-06,8.148668495e-06,9.808647662e-06,8.779906742e-06,9.521423497e-06,8.932921217e-06,7.944073708e-06,3.666366426e-06,6.754366451e-06,1.252928545e-05,2.627783506e-06,4.554541250e-06,6.610877337e-06,5.611000151e-06,8.067130764e-06,2.068945035e-05,2.047505004e-05,1.300397292e-06,-3.127743723e-06
0.085,6.213073439e-06,7.477910700e-06,6.489639315e-06,4.126695163e-06,5.990190241e-07,9.745589585e-06,9.144269225e-06,8.353012735e-06,1.429378615e-05,9.271003053e-06,1.020901179e-05,7.220658077e-06,7.613232305e-06,1.069668128e-05,1.037048669e-05,1.023284634e-05,8.536693333e-06,7.712157975e-06,3.596258007e-06,6.887919877e-06,1.506063394e-05,5.067943617e-06,6.103822493e-06,8.981627932e-06,9.744614234e-06,1.112851368e-05,2.113695248e-05,2.111872413e-05,1.503986789e-05,-8.458876665e-06
0.09,3.731274935e-06,5.467008747e-06,4.774927022e-06,1.846451873e-06,3.706654275e-06,8.400412170e-06,1.192118947e-05,4.542068743e-06,1.305079714e-05,3.402484790e-06,8.555104505e-06,4.223946324e-06,5.477252395e-06,9.714472388e-06,9.160086529e-06,8.801485431e-06,6.048386922e-06,5.639688065e-06,1.223766362e-06,5.647809415e-06,1.332433920e-05,5.494331686e-06,7.719747115e-06,9.821240689e-06,9.612730120e-06,1.084485083e-05,1.635798820e-05,1.745509891e-05,1.725803578e-06,-2.980828630e-06
0.095,7.039621219e-07,1.935061414e-06,1.087956658e-06,-9.917991808e-07,6.205954173e-06,6.538116140e-06,9.048604795e-06,2.981804907e-06,1.088615944e-05,-1.607846036e-06,6.651943216e-06,4.724392435e-08,2.551295661e-06,7.466470901e-06,4.322440795e-06,3.861352651e-06,1.588176854e-06,2.067119561e-06,-2.566028521e-06,3.337502123e-06,7.542441526e-06,3.330789595e-06,6.041415870e-06,8.868671273e-06,4.632743946e-06,6.640046273e-06,6.695445774e-06,9.320711453e-06,-6.614788751e-06,-1.683441563e-06
0.1,-3.596233921e-06,-3.518296347e-06,-4.487305254e-06,-4.653232970e-06,2.070848533e-06,3.299540477e-06,-1.607833763e-06,3.740070795e-06,7.306896548e-06,-4.705313206e-06,4.572676536e-06,-4.926155230e-06,-9.991170429e-07,4.119657820e-06,-3.556245306e-06,-4.444076093e-06,-4.799034903e-06,-3.183509853e-06,-7.134140929e-06,-6.946883844e-07,-1.479659984e-07,-1.475819616e-06,-1.481670235e-06,5.604301848e-06,-3.473691887e-06,-5.024990144e-07,-5.587280080e-06,-1.685421860e-06,9.760795705e-06,-1.843569334e-07
0.105,-8.786516308e-06,-9.530187746e-06,-1.081710351e-05,-9.268152237e-06,-8.322907701e-06,-1.787800918e-06,-1.431230934e-05,4.223710243e-06,2.175718841e-06,-6.221350930e-06,2.316480695e-06,-8.796911578e-06,-4.021288051e-06,6.953059802e-07,-1.113404864e-05,-1.228131241e-05,-1.170107207e-05,-9.363240837e-06,-1.183628333e-05,-6.490939506e-06,-6.485794607e-06,-7.242265902e-06,-1.211383624e-05,9.944601916e-07,-1.071139161e-05,-7.157195305e-06,-1.600789791e-05,-1.122550465e-05,-1.832366772e-06,-2.800272172e-06
0.11,-1.236810120e-05,-1.278866578e-05,-1.515204560e-05,-1.338480358e-05,-1.652565285e-05,-7.022370330e-06,-1.842975055e-05,2.540153375e-06,-2.603184348e-06,-5.742192859e-06,1.150854672e-06,-8.431228557e-06,-3.863547871e-06,-2.785346259e-07,-1.351871336e-05,-1.384325511e-05,-1.609704962e-05,-1.401518246e-05,-1.544290049e-05,-1.208617258e-05,-9.537397734e-06,-1.072116014e-05,-1.868347898e-05,-1.923816568e-06,-1.285565238e-05,-8.888696183e-06,-2.000325301e-05,-1.409035624e-05,2.319292001e-06,-2.188875648e-06
0.115,-1.190026706e-05,-1.108532170e-05,-1.505089013e-05,-1.488307353e-05,-1.466572341e-05,-9.680261114e-06,-8.900485162e-06,-5.418256190e-07,-4.309093898e-06,-2.567783297e-06,2.724981589e-06,-2.571790770e-06,1.174924092e-06,3.232872615e-06,-8.205285666e-06,-6.661239223e-06,-1.567847112e-05,-1.471674597e-05,-1.672862840e-05,-1.475855824e-05,-1.002257823e-05,-9.582641429e-06,-1.618177920e-05,-4.897717576e-07,-8.664607643e-06,-3.907686733e-06,-1.634231194e-05,-8.397786036e-06,9.255937735e-06,7.379443400e-07
0.12,-8.074619090e-06,-6.182259463e-06,-1.103496902e-05,-1.334279790e-05,-4.804303159e-06,-8.968459138e-06,6.985492606e-06,-2.932104148e-06,-2.502974471e-06,1.977263982e-06,6.696376278e-06,5.671507342e-06,8.990586201e-06,9.954397886e-06,1.947645316e-06,4.911455194e-06,-1.148091095e-05,-1.170920401e-05,-1.576053135e-05,-1.378225024e-05,-9.779150311e-06,-4.880201536e-06,-7.294097154e-06,4.433495770e-06,-1.355008817e-06,4.569512750e-06,-8.509393195e-06,1.969946253e-06,2.348465141e-06,-6.725584918e-08
0.125,-4.664365802e-06,-2.549471523e-06,-6.580363803e-06,-1.073167172e-05,2.628629455e-06,-6.932913081e-06,1.533467100e-05,-3.531182997e-06,4.235177462e-08,4.455022621e-06,1.015001324e-05,1.062640091e-05,1.444705552e-05,1.541961641e-05,1.037835455e-05,1.257842137e-05,-7.496130159e-06,-8.168632858e-06,-1.405292433e-05,-1.125086310e-05,-9.403147238e-06,-4.838575020e-07,-3.044233290e-07,8.607584477e-06,3.573741647e-06,1.040046018e-05,-2.310579589e-06,9.870061987e-06,1.149459491e-05,-1.402119929e-06
0.13,-4.833459502e-06,-2.923032250e-06,-4.897251385e-06,-9.311609499e-06,1.767781421e-07,-5.935997772e-06,8.948694582e-06,-2.611105159e-06,2.548171171e-07,2.722233513e-06,1.020218812e-05,9.020704363e-06,1.384292714e-05,1.575310152e-05,1.215849664e-05,1.118039733e-05,-7.102125649e-06,-7.370930810e-06,-1.302049165e-05,-9.722257569e-06,-8.251780281e-06,3.682888218e-07,-1.025492056e-06,8.357246968e-06,2.603049207e-06,9.661818619e-06,-1.638318668e-06,1.053789952e-05,8.436993532e-07,-2.346932023e-06
0.135,-7.819446741e-06,-5.711853011e-06,-5.866949951e-06,-9.235915113e-06,-8.558655072e-06,-5.799718423e-06,-5.758911838e-06,-5.938703607e-07,-1.721976630e-06,-1.179831791e-06,7.056871142e-06,2.928834341e-06,8.438980068e-06,1.134157262e-05,7.920421009e-06,2.950266327e-06,-9.871900212e-06,-9.593649358e-06,-1.240704778e-05,-9.364354009e-06,-6.606348096e-06,-2.069968937e-06,-7.262211543e-06,4.204808802e-06,-3.200587537e-06,3.904186803e-06,-6.025629235e-06,5.096580661e-06,-1.653562193e-06,6.959585588e-06
0.14,-9.818186525e-06,-7.182619307e-06,-6.517619501e-06,-8.702994352e-06,-1.334507933e-05,-4.258107508e-06,-1.543708566e-05,2.353122417e-06,-2.713259972e-06,-2.882986079e-06,3.825486883e-06,-2.526296367e-06,3.027261190e-06,6.326806753e-06,2.584277483e-06,-5.233211873e-06,-1.210758676e-05,-1.195830950e-05,-1.057969140e-05,-7.969675764e-06,-6.470518264e-06,-4.661536003e-06,-1.166803606e-05,1.826057133e-07,-9.386997067e-06,-1.684018843e-06,-1.165568657e-05,-1.193559297e-06,1.410349111e-05,1.306851637e-06
0.145,-8.078644290e-06,-5.667692262e-06,-4.390045749e-06,-6.312562140e-06,-8.755719976e-06,-1.562042916e-07,-1.268305493e-05,5.321698275e-06,-3.149896237e-07,-6.895565780e-07,3.136589449e-06,-4.161358157e-06,1.057113564e-06,4.406990650e-06,4.687930631e-07,-8.371296920e-06,-1.049742998e-05,-1.123102983e-05,-6.406716559e-06,-3.788276014e-06,-9.157260897e-06,-4.558934854e-06,-9.610134857e-06,-3.768842544e-07,-1.169783583e-05,-3.131967557e-06,-1.434343250e-05,-3.775083028e-06,9.936929927e-06,2.960039909e-06
0.15,-3.547715235e-06,-2.859692460e-06,7.483627229e-08,-2.627864241e-06,5.936361517e-07,4.737305539e-06,-1.916527586e-06,6.419649244e-06,4.233595999e-06,2.377400451e-06,4.474233844e-06,-3.059728986e-06,1.723336198e-06,5.528838499e-06,1.857880964e-06,-6.881227604e-06,-5.073962149e-06,-6.602612165e-06,-5.510599594e-07,2.208948606e-06,-1.251776481e-05,-1.497087602e-06,-3.372155724e-06,2.105012048e-06,-8.774703156e-06,-5.950490728e-07,-1.189823042e-05,-1.911694680e-06,6.733431666e-06,2.011668245e-06
0.155,7.756695378e-07,-1.059797112e-06,4.640552757e-06,8.734111619e-07,6.214983776e-06,7.766004842e-06,6.512189857e-06,4.729710723e-06,7.624300495e-06,2.412598827e-06,5.396093010e-06,-2.178813887e-06,2.024037283e-06,6.914111909e-06,4.085192171e-06,-4.288707097e-06,1.399059528e-06,1.688090226e-07,5.316178271e-06,7.320557604e-06,-1.184396850e-05,2.851807948e-06,1.495658364e-06,4.713637924e-06,-2.145635154e-06,3.147467954e-06,-4.603492247e-06,2.264752167e-06,-7.735963406e-06,7.851415188e-06
0.16,3.607720887e-06,-5.352637436e-08,8.254800389e-06,3.958965959e-06,5.307619186e-06,8.877160536e-06,6.638872288e-06,2.435868031e-06,8.676129363e-06,-4.759581775e-08,5.124247597e-06,-2.446938697e-06,1.021059232e-06,6.913571333e-06,5.282923475e-06,-2.604932860e-06,6.637243047e-06,6.931427928e-06,1.046718491e-05,1.023632914e-05,-4.099612383e-06,7.186417296e-06,3.039119422e-06,5.838004822e-06,5.733506507e-06,6.307053680e-06,5.709829099e-06,6.822211408e-06,2.734903961e-06,2.166982792e-06
0.165,6.805571199e-06,2.673316488e-06,1.229146106e-05,8.126912842e-06,2.928463949e-06,1.121070415e-05,1.405249285e-06,3.839029011e-06,1.012538909e-05,9.084223680e-08,6.086708301e-06,-1.785679807e-06,1.197345923e-06,7.152345699e-06,6.510900807e-06,-6.067314586e-07,1.111063879e-05,1.310623071e-05,1.596110766e-05,1.271136475e-05,9.181943157e-06,1.182216857e-05,5.132069417e-06,7.102933904e-06,1.332057290e-05,9.741331451e-06,1.689332619e-05,1.172256556e-05,-2.329245792e-06,-2.652025508e-08
0.17,1.283592593e-05,8.864391076e-06,1.862873641e-05,1.471573868e-05,5.475951364e-06,1.774026982e-05,-1.580936085e-06,1.128995648e-05,1.568153771e-05,6.679886213e-06,1.129458552e-05,2.151156705e-06,5.374615113e-06,1.053632550e-05,1.015386817e-05,3.773498390e-06,1.701229226e-05,1.947341148e-05,2.325159244e-05,1.775267114e-05,2.339408399e-05,1.771882140e-05,1.274327140e-05,1.136175125e-05,2.029840022e-05,1.519162203e-05,2.717082024e-05,1.778107896e-05,-1.440866191e-05,4.146229884e-06
0.175,2.116335762e-05,1.711367973e-05,2.674060751e-05,2.270366019e-05,1.357775150e-05,2.750925218e-05,2.192421088e-06,2.210420729e-05,2.541288326e-05,1.710602002e-05,2.028081273e-05,8.717851080e-06,1.275138137e-05,1.731808833e-05,1.648793232e-05,1.021214310e-05,2.502082369e-05,2.619622097e-05,3.182750805e-05,2.600952486e-05,3.441194264e-05,2.455874877e-05,2.555160728e-05,1.899927602e-05,2.645661379e-05,2.233651563e-05,3.498237188e-05,2.446895318e-05,-1.097049481e-05,6.572332084e-06
0.18,2.758402089e-05,2.349365373e-05,3.301931146e-05,2.859962077e-05,2.160550283e-05,3.554638209e-05,9.904615854e-06,3.004199258e-05,3.447012831e-05,2.378363032e-05,2.814344313e-05,1.390752009e-05,1.851299450e-05,2.351203149e-05,2.208594868e-05,1.543279411e-05,3.227133631e-05,3.131299481e-05,3.836219700e-05,3.404530633e-05,3.997803738e-05,2.994700467e-05,3.679878155e-05,2.645569758e-05,3.044332652e-05,2.787714349e-05,3.844202033e-05,2.903535805e-05,-9.146227409e-06,7.923939175e-07
0.185,2.741091182e-05,2.426637732e-05,3.323616205e-05,2.871556347e-05,2.302136864e-05,3.667486627e-05,1.380128146e-05,3.016804898e-05,3.669906770e-05,2.098707748e-05,2.908299685e-05,1.323678363e-05,1.758489119e-05,2.357265904e-05,2.192618918e-05,1.564083748e-05,3.394299269e-05,3.157127970e-05,3.866499452e-05,3.650976836e-05,3.862416091e-05,3.066428549e-05,3.869796348e-05,2.857828650e-05,2.990574437e-05,2.770490917e-05,3.554745479e-05,2.802758231e-05,-1.439820919e-05,1.188840590e-06
0.19,1.958171282e-05,1.833201844e-05,2.603981589e-05,2.198404422e-05,1.567821284e-05,2.964532072e-05,8.143408862e-06,2.243691732e-05,2.981124596e-05,9.867464113e-06,2.126808285e-05,5.389565725e-06,8.982852547e-06,1.511254359e-05,1.365768752e-05,9.593559679e-06,2.744957135e-05,2.528476189e-05,3.117035780e-05,3.060608053e-05,2.964299106e-05,2.516685855e-05,2.924638018e-05,2.282334612e-05,2.345656805e-05,2.036940136e-05,2.582249071e-05,2.017383623e-05,-1.674109697e-05,2.014668056e-06
0.195,7.985716816e-06,8.040432602e-06,1.451142880e-05,1.116383297e-05,3.077642869e-06,1.810138060e-05,-4.816949570e-06,1.108349022e-05,1.746755299e-05,-3.065478114e-06,8.643447609e-06,-6.279464245e-06,-3.065063993e-06,1.533665121e-06,4.129830282e-07,-8.736291403e-08,1.548640705e-05,1.473574386e-05,1.901280443e-05,1.899500482e-05,1.550887488e-05,1.545682213e-05,1.421995761e-05,1.176189120e-05,1.296942827e-05,8.963336059e-06,1.221716682e-05,8.312321711e-06,-1.702656304e-05,2.153610920e-06
0.2,-1.107293480e-06,-1.781364329e-06,4.458524773e-06,1.526125941e-06,-8.072333044e-06,8.024218622e-06,-1.535595831e-05,1.332057196e-06,6.676150064e-06,-1.155783463e-05,-1.752430626e-06,-1.559827977e-05,-1.192236035e-05,-9.777463834e-06,-1.053347470e-05,-8.184128914e-06,4.796503540e-06,5.557119624e-06,8.549066062e-06,8.399154395e-06,3.066446272e-06,6.612134120e-06,2.773422761e-06,1.764135012e-06,3.653128718e-06,-2.914929629e-07,7.608870935e-07,-1.578000744e-06,-1.736325288e-05,5.741367466e-06
0.205,-3.377107484e-06,-6.300339386e-06,6.699688082e-07,-2.246547853e-06,-1.183612548e-05,3.980653948e-06,-1.417586641e-05,-3.244623604e-06,2.912822052e-06,-1.343555807e-05,-4.547342705e-06,-1.767007397e-05,-1.286614475e-05,-1.239821030e-05,-1.268660799e-05,-1.001697945e-05,1.250371846e-06,2.982916771e-06,5.086563602e-06,4.780524755e-06,-3.122349711e-07,3.764515495e-06,6.056841572e-07,-1.272512012e-06,8.644923453e-07,-2.034878612e-06,-3.038739686e-06,-4.142206438e-06,5.772214718e-07,2.159108163e-06
0.21,7.980345880e-07,-3.712768595e-06,3.850073462e-06,9.701132641e-07,-6.638653056e-06,6.719957519e-06,-1.380158313e-06,-1.499126796e-06,6.807065920e-06,-1.007143531e-05,8.120405787e-07,-1.234558790e-05,-5.851329634e-06,-5.183068680e-06,-5.086030642e-06,-4.623062018e-06,5.384672187e-06,7.887710706e-06,9.157195691e-06,9.012301229e-06,6.881523542e-06,8.455792258e-06,6.306055923e-06,4.022950338e-06,5.906867740e-06,4.483524962e-06,1.502338421e-06,1.417634278e-06,-1.400388507e-05,8.597506505e-07
0.215,7.085072268e-06,3.235615952e-06,1.047051994e-05,8.003371106e-06,3.513628931e-06,1.325561016e-05,1.261465309e-05,5.268949537e-06,1.453207110e-05,-3.907268376e-06,1.044174332e-05,-4.236890868e-06,4.880221900e-06,7.327934164e-06,7.121954180e-06,4.331955339e-06,1.238933825e-05,1.614998118e-05,1.646949314e-05,1.669251406e-05,1.842151137e-05,1.736531060e-05,1.345387020e-05,1.380311633e-05,1.476215588e-05,1.489103033e-05,9.452793123e-06,1.061785761e-05,-1.726758614e-05,9.160259655e-06
0.22,1.065268805e-05,9.091214507e-06,1.562794226e-05,1.367121989e-05,1.171914073e-05,1.907817723e-05,1.657675872e-05,1.346647036e-05,2.109760106e-05,2.833652100e-06,1.911924817e-05,1.110815221e-06,1.383199589e-05,1.858969460e-05,1.693676239e-05,1.112194674e-05,1.650307377e-05,2.205132871e-05,2.155315175e-05,2.214639352e-05,2.591000196e-05,2.483899328e-05,1.624547341e-05,2.224480223e-05,2.136430152e-05,2.306521296e-05,1.427954811e-05,1.716484499e-05,-9.267462766e-06,7.182312690e-06
0.225,9.609042734e-06,9.985640697e-06,1.664057326e-05,1.455851092e-05,1.345652708e-05,2.110428297e-05,9.425962936e-06,1.863028516e-05,2.381426363e-05,8.145225769e-06,2.365661742e-05,1.782811385e-06,1.782221722e-05,2.474142316e-05,2.089851770e-05,1.239647693e-05,1.567988614e-05,2.268362301e-05,2.185690602e-05,2.291226213e-05,2.607217245e-05,2.729361372e-05,1.378611570e-05,2.601298655e-05,2.256021919e-05,2.573714127e-05,1.307953152e-05,1.779648266e-05,-1.760828856e-06,7.946624648e-06
0.23,5.850837850e-06,6.616088725e-06,1.448426063e-05,1.125427096e-05,9.879959469e-06,1.945533834e-05,7.327267039e-07,1.847197183e-05,2.340014135e-05,1.068436382e-05,2.431012269e-05,5.490569830e-07,1.762660478e-05,2.650817765e-05,2.085476845e-05,9.672769982e-06,1.235683251e-05,1.947775212e-05,1.883780114e-05,2.073762473e-05,2.192040746e-05,2.561279760e-05,9.697683805e-06,2.612281360e-05,2.009592438e-05,2.440494155e-05,8.077714297e-06,1.422157095e-05,-6.690359456e-06,6.735958077e-06
0.235,2.906849289e-06,2.949214679e-06,1.205209824e-05,7.168513508e-06,5.663781099e-06,1.674417970e-05,-3.902162780e-07,1.510543411e-05,2.225038700e-05,1.082717102e-05,2.357297380e-05,1.320901279e-06,1.655618848e-05,2.711323986e-05,2.087752917e-05,7.402932193e-06,1.018072687e-05,1.592612233e-05,1.561263716e-05,1.869347580e-05,1.742091427e-05,2.344744865e-05,7.980763857e-06,2.580086244e-05,1.802424066e-05,2.303207822e-05,3.432053881e-06,1.065401528e-05,-2.103977336e-05,9.033092431e-06
0.24,2.814096126e-06,2.033346458e-06,1.110747267e-05,5.161657106e-06,3.664500165e-06,1.544226140e-05,4.418367612e-06,1.344613895e-05,2.175161130e-05,1.060137878e-05,2.361508415e-05,4.717617543e-06,1.727137934e-05,2.863396891e-05,2.286521238e-05,8.452546017e-06,1.038766801e-05,1.420637892e-05,1.390384769e-05,1.781413736e-05,1.305839353e-05,2.334459765e-05,9.339838960e-06,2.680113208e-05,1.858787651e-05,2.399985900e-05,1.281431408e-06,9.740525887e-06,-7.378816090e-06,4.600898065e-06
0.245,4.723372898e-06,3.409355544e-06,1.090434492e-05,5.257845744e-06,2.547189214e-06,1.570071329e-05,5.511836465e-06,1.646178786e-05,2.120916033e-05,1.181723200e-05,2.457554192e-05,7.581628150e-06,1.969395561e-05,3.040723280e-05,2.532885475e-05,1.163525764e-05,1.128306771e-05,1.394530848e-05,1.314119515e-05,1.671614203e-05,7.713755149e-06,2.464803755e-05,1.137280346e-05,2.798020161e-05,2.075808660e-05,2.630913512e-05,1.151596009e-06,1.093046939e-05,-6.579842489e-06,5.468066594e-06
0.25,6.197853996e-06,4.629119021e-06,9.589155009e-06,5.451377282e-06,7.280636355e-08,1.567403097e-05,-1.974267914e-06,2.199491814e-05,1.922623519e-05,1.433429680e-05,2.504398563e-05,6.976324143e-06,2.181535073e-05,3.064824914e-05,2.605468971e-05,1.376773709e-05,1.065383246e-05,1.362575950e-05,1.192618324e-05,1.405877729e-05,3.275544940e-06,2.496784878e-05,1.191100952e-05,2.727995126e-05,2.224770374e-05,2.743727040e-05,2.380155152e-06,1.230696411e-05,-8.494640744e-06,3.712006052e-06
0.255,5.715958284e-06,4.595422051e-06,6.632461489e-06,4.387601709e-06,-2.387064243e-06,1.390871711e-05,-1.080324012e-05,2.488796124e-05,1.584709164e-05,1.661343480e-05,2.401281893e-05,4.043191672e-06,2.229147810e-05,2.903502469e-05,2.510807894e-05,1.368826558e-05,8.171951224e-06,1.252828906e-05,9.808584303e-06,1.064890816e-05,4.522795543e-06,2.318453378e-05,1.160413711e-05,2.453637980e-05,2.216016022e-05,2.641107796e-05,5.765314680e-06,1.320521385e-05,-1.647940457e-05,6.245100246e-06
0.26,4.028399000e-06,4.615891921e-06,3.685322237e-06,2.976323577e-06,-3.467975731e-07,1.122937874e-05,-9.248468833e-06,2.245937645e-05,1.306112933e-05,1.783532192e-05,2.222236323e-05,3.137906282e-06,2.193660318e-05,2.728562372e-05,2.470870572e-05,1.355563231e-05,5.582505287e-06,1.128660124e-05,7.685139847e-06,8.820792360e-06,1.341043076e-05,2.067152093e-05,1.295947031e-05,2.189059012e-05,2.150503745e-05,2.473409513e-05,1.226159175e-05,1.468254230e-05,-1.239498719e-05,4.001699249e-06
0.265,3.347299123e-06,6.270580792e-06,3.127249345e-06,3.425555161e-06,8.321973110e-06,1.012617860e-05,5.015007192e-06,1.739720798e-05,1.311006663e-05,1.871693841e-05,2.151087986e-05,7.070322991e-06,2.254063595e-05,2.727542469e-05,2.643922778e-05,1.601924162e-05,5.105434730e-06,1.112611166e-05,6.992587045e-06,1.008741886e-05,2.513245592e-05,1.974622954e-05,1.716016226e-05,2.153784542e-05,2.173741144e-05,2.450797346e-05,2.073019204e-05,1.783373704e-05,2.548624530e-06,-4.911040458e-07
0.27,5.302237809e-06,9.150769432e-06,5.895155815e-06,6.894485117e-06,1.957772924e-05,1.228820850e-05,2.140044743e-05,1.480286323e-05,1.636877010e-05,1.982599810e-05,2.283735361e-05,1.376216852e-05,2.441045793e-05,2.894335332e-05,2.921298411e-05,2.064964960e-05,7.765713095e-06,1.288024908e-05,8.724720371e-06,1.378372664e-05,3.183176505e-05,2.128180987e-05,2.237439327e-05,2.346969834e-05,2.330929782e-05,2.606587065e-05,2.794950859e-05,2.222506636e-05,-1.018778494e-05,4.125355288e-07
0.275,9.380235830e-06,1.127165554e-05,1.054938112e-05,1.205246382e-05,2.606456527e-05,1.674357371e-05,2.755284081e-05,1.661276207e-05,2.084830191e-05,1.968015277e-05,2.496886949e-05,1.797563670e-05,2.540207999e-05,3.016487362e-05,3.016013431e-05,2.374567477e-05,1.257911547e-05,1.625697218e-05,1.267469631e-05,1.776913858e-05,3.012022885e-05,2.379835481e-05,2.530534124e-05,2.548197055e-05,2.529894685e-05,2.750273719e-05,3.100535204e-05,2.596781127e-05,-1.158359528e-05,4.543675954e-06
0.28,1.293092444e-05,1.124539586e-05,1.407808458e-05,1.566221102e-05,2.368092335e-05,2.029905213e-05,2.177949699e-05,1.950941102e-05,2.356009227e-05,1.556943436e-05,2.514973310e-05,1.607950063e-05,2.257327882e-05,2.845277473e-05,2.713296541e-05,2.169087539e-05,1.663143348e-05,1.934791418e-05,1.689823892e-05,1.982952956e-05,2.345328400e-05,2.449014695e-05,2.398284944e-05,2.500018642e-05,2.572418629e-05,2.619689629e-05,2.918770588e-05,2.686335083e-05,-3.090496610e-06,8.162233910e-07
0.285,1.272925740e-05,9.259720496e-06,1.361986138e-05,1.460245082e-05,1.461418825e-05,1.978395371e-05,1.243529353e-05,1.847652399e-05,2.235605796e-05,6.724918553e-06,2.122260568e-05,8.845905478e-06,1.488639522e-05,2.271730132e-05,2.018040874e-05,1.424806591e-05,1.626791341e-05,1.901324909e-05,1.805386592e-05,1.836511009e-05,1.689379625e-05,2.108909735e-05,1.880243651e-05,2.073019374e-05,2.232195785e-05,2.073010844e-05,2.355280745e-05,2.347772984e-05,5.220734914e-06,1.294897841e-06
0.29,7.244538848e-06,6.025149886e-06,8.141162020e-06,8.000595270e-06,4.151921421e-06,1.428579635e-05,6.532787793e-06,1.199949950e-05,1.700069725e-05,-3.770106136e-06,1.346161055e-05,6.446738656e-08,4.468209619e-06,1.387590113e-05,1.115354724e-05,4.693294020e-06,9.546003615e-06,1.294947799e-05,1.344406981e-05,1.272678471e-05,1.145761423e-05,1.343651873e-05,1.143264578e-05,1.315296425e-05,1.421344917e-05,1.192786177e-05,1.557228824e-05,1.595844435e-05,-4.815800767e-06,-1.989018238e-06
0.295,-1.796171662e-06,1.783911604e-06,-6.202851946e-07,-1.768399517e-06,-4.195419586e-06,5.902524170e-06,2.674984731e-06,3.468061665e-06,9.283704424e-06,-1.092502784e-05,4.696568662e-06,-6.665999096e-06,-4.597006849e-06,4.440540209e-06,2.617913411e-06,-2.770607702e-06,-1.418426793e-06,2.440429595e-06,3.827270924e-06,4.058140853e-06,5.224265318e-06,4.082649801e-06,3.703917616e-06,4.345711381e-06,3.793631622e-06,2.740804867e-06,7.037810273e-06,6.665542371e-06,-3.112903720e-06,1.304151306e-06
0.3,-9.954614468e-06,-2.991313131e-06,-8.647701989e-06,-1.006143715e-05,-9.870944406e-06,-1.375050918e-06,-3.600349937e-06,-2.219856644e-06,2.352445671e-06,-1.197916237e-05,-1.382069110e-06,-9.672404773e-06,-8.875806587e-06,-2.478080875e-06,-2.995881881e-06,-5.657108194e-06,-1.085541586e-05,-7.200913722e-06,-5.897780994e-06,-4.163463525e-06,-1.208181490e-06,-2.706224754e-06,-2.264416350e-06,-2.553043946e-06,-3.561785098e-06,-3.027853611e-06,7.115829244e-07,-2.931719686e-07,4.141350288e-06,-1.613800354e-06
0.305,-1.294262239e-05,-6.590898696e-06,-1.191395629e-05,-1.281515787e-05,-1.303473963e-05,-4.085146212e-06,-1.091928488e-05,-2.934200601e-06,-8.185121582e-07,-8.567564502e-06,-2.627701114e-06,-9.025012862e-06,-7.693506920e-06,-4.712602502e-06,-4.364021191e-06,-4.183395137e-06,-1.341925179e-05,-1.028180589e-05,-9.982981781e-06,-7.698995486e-06,-3.482316727e-06,-3.641961929e-06,-4.078693404e-06,-4.770177776e-06,-3.353200097e-06,-3.006271524e-06,-6.712710927e-07,-1.559131742e-06,6.738381639e-06,-5.219071453e-06
0.31,-9.910127711e-06,-7.029005677e-06,-9.294153566e-06,-9.514612139e-06,-1.320256081e-05,-1.646785045e-06,-1.275617712e-05,-3.392436727e-07,5.662147012e-07,-4.839663706e-06,8.600004292e-08,-6.097143463e-06,-3.417217091e-06,-2.664898738e-06,-2.453252789e-06,-7.796170957e-07,-8.846468323e-06,-5.868058287e-06,-6.803852351e-06,-4.959998457e-06,8.899177749e-07,7.777048649e-07,-8.215142012e-07,-2.041594896e-06,3.415365764e-06,1.659853905e-06,2.771537154e-06,2.310580209e-06,1.735262250e-06,-3.941962598e-06
0.315,-4.238851798e-06,-4.396284462e-06,-3.634195504e-06,-3.676574052e-06,-1.049992894e-05,3.130788447e-06,-7.031121440e-06,2.522198173e-06,4.200238397e-06,-3.663335905e-06,3.504676555e-06,-3.394923705e-06,2.273905460e-07,4.811633697e-07,-5.096933786e-07,1.261451160e-06,-2.398862951e-06,8.948499367e-07,-5.064796401e-07,1.040211768e-06,7.496842550e-06,6.132805057e-06,4.836385657e-06,2.510712230e-06,1.006726248e-05,6.565760476e-06,6.771778416e-06,6.431921549e-06,4.324717097e-07,-1.654587159e-06
0.32,-6.861056940e-07,-1.410660569e-06,5.527089450e-07,1.100573419e-07,-6.712465691e-06,6.234269161e-06,-8.937370452e-07,4.042122884e-06,6.335734210e-06,-4.675966132e-06,4.533058479e-06,-3.437968873e-06,7.872928126e-07,1.058210921e-06,-1.641088385e-06,-2.143789614e-07,3.568564460e-08,3.459962826e-06,2.968032169e-06,5.034605611e-06,8.407438404e-06,7.675211160e-06,7.521167184e-06,4.620150293e-06,1.010811957e-05,7.442558598e-06,5.967674670e-06,5.578197622e-06,4.557832246e-06,7.301502163e-07
0.325,-1.223642664e-06,-7.511690299e-07,1.061930763e-06,1.783275299e-07,-3.714703932e-06,5.851499618e-06,-2.738364889e-06,4.689746327e-06,5.166357401e-06,-5.600488699e-06,2.791150357e-06,-6.502809757e-06,-1.143726495e-06,-1.695781157e-06,-5.574764956e-06,-4.357750527e-06,-2.465322117e-06,2.770413533e-07,1.764074927e-06,4.461758991e-06,1.076600416e-06,4.799480690e-06,3.729669509e-06,2.890544015e-06,3.793085720e-06,4.139835209e-06,-8.712244451e-07,-6.434794706e-07,1.467988597e-06,-5.164386420e-06
0.33,-3.557053004e-06,-2.076210904e-06,-2.274098107e-07,-1.115024376e-06,-1.362237655e-06,3.850028395e-06,-1.092431033e-05,5.623573194e-06,2.660943365e-06,-4.916728656e-06,8.735795483e-07,-9.606470502e-06,-2.542350038e-06,-4.563898025e-06,-8.214948636e-06,-7.421663522e-06,-5.441687036e-06,-3.843268116e-06,-3.530436373e-07,1.851056071e-06,-8.034939226e-06,1.769292758e-06,-4.094439577e-06,4.314592108e-07,-1.836759686e-06,1.055832912e-06,-9.092113001e-06,-6.953026230e-06,-1.265260884e-06,6.400810617e-07
0.335,-3.824342989e-06,-2.570580189e-06,2.626897429e-07,-3.916330862e-07,1.667612282e-06,3.615439816e-06,-1.437791638e-05,7.151405646e-06,2.536057410e-06,-3.098984339e-06,1.814966669e-06,-8.851589789e-06,-7.114544467e-07,-3.308500615e-06,-5.375537427e-06,-5.720892898e-06,-4.253131484e-06,-3.067197028e-06,1.429079410e-06,1.791237113e-06,-1.015497610e-05,3.425363029e-06,-8.943418130e-06,1.744688324e-06,-1.723360149e-07,2.895522627e-06,-1.238902872e-05,-7.468252070e-06,-1.033535586e-05,3.412721038e-06
0.34,-6.438964552e-07,-6.176652449e-07,3.753767963e-06,2.888889583e-06,4.867613870e-06,6.295141040e-06,-5.715437916e-06,8.435989616e-06,6.161742343e-06,-1.572436747e-06,6.031882461e-06,-3.400981455e-06,4.189679259e-06,2.948047688e-06,2.736328426e-06,7.579793096e-07,8.695491019e-07,3.137033300e-06,7.348300028e-06,5.715702279e-06,-3.562066407e-06,1.007069751e-05,-5.631998766e-06,7.747851480e-06,8.003022907e-06,9.743549242e-06,-8.835492294e-06,-1.702433476e-06,1.047294512e-05,4.329701223e-06
0.345,3.765407209e-06,2.024289815e-06,7.875685366e-06,6.050929613e-06,5.332539714e-06,9.548934393e-06,8.991108984e-06,8.442994317e-06,1.091502749e-05,-8.325498088e-07,1.086792194e-05,3.371915860e-06,9.366249075e-06,1.061743031e-05,1.130704074e-05,7.953627529e-06,5.490163467e-06,9.622478990e-06,1.274900972e-05,1.042724191e-05,5.465727540e-06,1.705152881e-05,4.169016913e-06,1.448086349e-05,1.550134334e-05,1.677183619e-05,-2.223436747e-06,5.034249773e-06,-5.346554642e-06,2.241086557e-06
0.35,6.412489489e-06,2.558584844e-06,9.631601400e-06,6.693966895e-06,1.392478266e-06,1.037540476e-05,1.642053620e-05,7.192525201e-06,1.309766810e-05,3.103278545e-07,1.338665149e-05,7.348271699e-06,1.229426945e-05,1.530255417e-05,1.567524031e-05,1.160951263e-05,6.339959509e-06,1.143647638e-05,1.340704693e-05,1.203001276e-05,1.079551292e-05,1.962499898e-05,1.374049970e-05,1.728642204e-05,1.660839633e-05,1.920054652e-05,2.598209308e-06,7.436864660e-06,-2.389053537e-06,5.931587436e-07
0.355,6.931850514e-06,1.190565513e-06,9.068758778e-06,5.844845341e-06,-4.031215972e-06,8.868068176e-06,1.117325050e-05,6.209108962e-06,1.226114549e-05,3.661303746e-06,1.352132593e-05,8.044853274e-06,1.330697471e-05,1.635960161e-05,1.604547659e-05,1.164964462e-05,5.063214521e-06,9.258711247e-06,1.037825995e-05,1.058495858e-05,1.325439884e-05,1.782309517e-05,1.812515735e-05,1.594052868e-05,1.302687624e-05,1.727209340e-05,4.933014600e-06,5.867550816e-06,2.157814717e-06,-3.892851590e-09
0.36,7.667340345e-06,1.486736631e-06,9.271233095e-06,6.876437361e-06,-5.509916135e-06,8.390913662e-06,1.621001653e-06,7.541411036e-06,1.183979131e-05,9.701719205e-06,1.406016717e-05,8.734931111e-06,1.496501081e-05,1.724151532e-05,1.685885712e-05,1.211240901e-05,6.100039258e-06,8.384510160e-06,8.844030742e-06,9.983467311e-06,1.789739369e-05,1.601907949e-05,1.852586503e-05,1.482950065e-05,1.139575358e-05,1.577074021e-05,8.162866059e-06,5.614458797e-06,-2.949617131e-06,1.784190820e-06
0.365,1.048731647e-05,6.032316065e-06,1.257622959e-05,1.132601318e-05,-1.021880177e-06,1.165261429e-05,-4.281963445e-07,1.181721878e-05,1.506578997e-05,1.647710954e-05,1.727223805e-05,1.200049284e-05,1.873837827e-05,2.111699768e-05,2.139329242e-05,1.632538536e-05,1.133498948e-05,1.261310401e-05,1.230487938e-05,1.324377712e-05,2.590099767e-05,1.787349123e-05,1.965868203e-05,1.780062536e-05,1.555665650e-05,1.856617070e-05,1.485443696e-05,1.064256798e-05,1.150507010e-06,-1.122171214e-06
0.37,1.414110069e-05,1.247473931e-05,1.739321691e-05,1.652789400e-05,5.448181551e-06,1.707792116e-05,6.594144662e-06,1.697291687e-05,2.071558061e-05,2.041437257e-05,2.178890070e-05,1.596220803e-05,2.262472481e-05,2.664142154e-05,2.755668439e-05,2.249987177e-05,1.766171278e-05,1.991524698e-05,1.861473881e-05,1.878965525e-05,3.187512974e-05,2.237292844e-05,2.348511342e-05,2.345543254e-05,2.237584464e-05,2.413697161e-05,2.294562548e-05,1.880014727e-05,1.224816684e-06,4.197362110e-08
0.375,1.525414123e-05,1.510861722e-05,1.939549970e-05,1.795013047e-05,8.191116066e-06,1.983203884e-05,1.323411163e-05,1.926251029e-05,2.370134251e-05,1.868175777e-05,2.332923804e-05,1.580775331e-05,2.251944421e-05,2.869852878e-05,2.953190171e-05,2.481401016e-05,2.000088854e-05,2.438979267e-05,2.204915272e-05,2.194498834e-05,3.007380036e-05,2.509655535e-05,2.672397847e-05,2.621228778e-05,2.532479704e-05,2.687588986e-05,2.732367872e-05,2.363786151e-05,-2.825850781e-06,1.502785985e-06
0.38,1.185916622e-05,1.072487188e-05,1.588846597e-05,1.371065524e-05,5.866701090e-06,1.664784168e-05,1.094558576e-05,1.623667901e-05,2.013709913e-05,1.136321208e-05,1.881518934e-05,9.044340272e-06,1.617238958e-05,2.347092409e-05,2.351625118e-05,1.915275003e-05,1.622195221e-05,2.202245968e-05,1.891438942e-05,1.974191903e-05,2.154220597e-05,2.286167540e-05,2.487516828e-05,2.198734788e-05,2.121849117e-05,2.267402612e-05,2.485674078e-05,2.071439502e-05,3.194220174e-06,1.761107719e-07
0.385,5.604019044e-06,2.249951987e-06,8.651837654e-06,6.388756700e-06,2.016340977e-06,9.261129802e-06,1.548743233e-06,9.169680925e-06,1.148047877e-05,1.710003717e-06,9.752090329e-06,-1.401541469e-06,5.792263837e-06,1.254891480e-05,1.160813226e-05,7.583868921e-06,8.864734856e-06,1.418511563e-05,1.082756533e-05,1.365098152e-05,1.327512826e-05,1.660632932e-05,1.782520715e-05,1.238682954e-05,1.283846532e-05,1.297385095e-05,1.743689636e-05,1.181121164e-05,4.083664653e-06,-2.426055635e-06
0.39,3.874767138e-07,-3.951426162e-06,2.363779583e-06,4.773694840e-07,-1.110853363e-07,2.802096454e-06,-6.356625932e-06,2.412625333e-06,3.390774441e-06,-5.820891184e-06,1.413229319e-06,-9.541656742e-06,-3.278069502e-06,1.956761147e-06,2.267641498e-07,-2.991708086e-06,2.556406517e-06,5.940719886e-06,2.888055338e-06,7.718129075e-06,1.064973337e-05,1.002676412e-05,1.043589623e-05,3.262634417e-06,5.702593149e-06,3.528978675e-06,1.025465460e-05,3.233857219e-06,-9.901169176e-07,6.172073940e-07
0.395,-9.950026108e-07,-4.134220394e-06,4.806228512e-07,-1.461802945e-06,-1.194697142e-06,1.046950984e-06,-7.781216068e-06,-6.607777093e-08,6.773260080e-07,-8.289540161e-06,-1.409962256e-06,-1.137301896e-05,-6.528343741e-06,-2.711954643e-06,-4.907819236e-06,-6.508087552e-06,3.295242038e-07,1.661386586e-06,-7.151016647e-07,4.802235285e-06,1.240587511e-05,6.234243268e-06,7.559893326e-06,-3.972038129e-07,3.426352684e-06,-3.938964272e-07,7.537582398e-06,4.821582427e-07,-1.298652173e-05,3.819322708e-06
0.4,1.105107505e-06,-1.661135547e-07,2.715979317e-06,-1.248236720e-07,-3.251468298e-06,3.526142276e-06,-5.231477712e-06,2.157406655e-06,3.525056641e-06,-5.825988563e-06,1.899750002e-06,-7.490515824e-06,-3.371809445e-06,-3.619378679e-07,-2.532427139e-06,-2.229142418e-06,2.109347029e-06,2.224170719e-06,5.865946403e-07,4.918870718e-06,1.352099659e-05,5.936367112e-06,9.288748313e-06,1.941066115e-06,6.024231454e-06,2.221805622e-06,9.737193010e-06,4.326723087e-06,-2.164550888e-06,3.369182252e-06
0.405,3.963781927e-06,3.117451847e-06,6.023514228e-06,2.158028151e-06,-5.121632979e-06,6.915620771e-06,-3.036252002e-06,5.991158485e-06,8.225016249e-06,-1.173901195e-06,7.765721552e-06,-1.548837759e-06,2.897018378e-06,5.533314004e-06,4.162251191e-06,5.542258430e-06,5.619073514e-06,5.391100348e-06,4.293055147e-06,6.426477989e-06,1.138881980e-05,7.940636292e-06,1.156503160e-05,6.969630467e-06,1.101703693e-05,8.094625599e-06,1.384063408e-05,1.094965367e-05,8.899676020e-06,2.280058004e-06
0.41,4.797037042e-06,2.638438707e-06,7.380626734e-06,3.479570403e-06,-3.299453716e-06,8.423781466e-06,-1.549191896e-06,7.783653431e-06,1.081532743e-05,2.156103518e-06,1.158517621e-05,2.830999298e-06,7.689086156e-06,1.006142811e-05,1.021626711e-05,1.130715620e-05,8.012632066e-06,7.908800979e-06,7.115550731e-06,7.714081725e-06,7.595619318e-06,1.032881701e-05,1.085697844e-05,1.065607984e-05,1.491832837e-05,1.242876706e-05,1.567790187e-05,1.503131909e-05,5.239771324e-06,-2.396549075e-07
0.415,2.486527609e-06,-1.045563408e-06,5.643141586e-06,2.980568699e-06,2.215483236e-06,7.512476692e-06,1.008163305e-06,6.224449414e-06,9.851297051e-06,1.900323477e-06,1.108383759e-05,3.800317172e-06,8.090970661e-06,1.023091116e-05,1.193662190e-05,1.203748198e-05,7.184844127e-06,7.415020500e-06,6.947319332e-06,7.674591919e-06,4.290838081e-06,1.119206207e-05,7.298046256e-06,1.078748409e-05,1.450124076e-05,1.209905973e-05,1.247373316e-05,1.322567315e-05,-1.054313281e-05,4.849684980e-06
0.42,-2.172958180e-06,-5.564331297e-06,1.553718671e-06,6.089171115e-07,5.383041119e-06,5.105864134e-06,3.273042902e-06,2.748298813e-06,6.523900246e-06,-1.717724647e-06,7.412131437e-06,1.472774873e-06,4.466477036e-06,6.470058716e-06,8.853209446e-06,8.353595109e-06,2.779271444e-06,3.484036752e-06,3.757577723e-06,5.682150545e-06,1.037355536e-06,9.438006900e-06,3.281866888e-06,7.726193727e-06,8.808208260e-06,7.494094844e-06,4.581244898e-06,6.208858030e-06,-3.763813252e-06,2.269735066e-06
0.425,-7.246333995e-06,-9.183105552e-06,-3.175405876e-06,-2.800630355e-06,4.952125091e-08,2.293874510e-06,1.111337642e-06,-2.193789944e-07,3.212053038e-06,-6.069365861e-06,3.796702508e-06,-2.275740211e-06,4.045752324e-08,1.994817142e-06,3.943719742e-06,3.423601734e-06,-3.391731608e-06,-2.226565931e-06,-5.853091134e-07,2.174978902e-06,-3.659655253e-06,5.891223817e-06,1.798031367e-07,3.907714679e-06,9.986779646e-07,2.271290465e-06,-4.403287827e-06,-1.610958699e-06,7.284213731e-06,-4.708117158e-07
0.43,-1.072747867e-05,-1.128788250e-05,-6.731847792e-06,-5.418912369e-06,-1.176595825e-05,1.328458764e-07,-6.070864765e-06,-1.039384581e-06,2.108127079e-06,-7.667436482e-06,3.195436222e-06,-4.447416792e-06,-1.256959719e-06,7.217758479e-07,1.737451968e-06,8.117897929e-07,-8.305638965e-06,-6.903504499e-06,-3.522033285e-06,-8.761843581e-07,-8.889809834e-06,3.350688820e-06,-2.449855387e-06,2.541353538e-06,-2.921072270e-06,9.783602194e-07,-9.687137521e-06,-4.870354273e-06,6.367057264e-06,5.959083935e-06
0.435,-1.145708211e-05,-1.148773288e-05,-7.867988652e-06,-5.331742959e-06,-1.992564439e-05,-1.233854700e-07,-1.228088456e-05,6.617205509e-07,4.327128862e-06,-4.506067691e-06,6.534541250e-06,-2.782481271e-06,2.484955837e-06,4.743035846e-06,4.984940594e-06,2.324791299e-06,-9.825722179e-06,-8.315407417e-06,-3.524137636e-06,-1.059994426e-06,-1.115219281e-05,4.529293666e-06,-4.678189676e-06,5.640340405e-06,9.413362898e-07,5.699265009e-06,-8.575630945e-06,-1.114061507e-06,-1.383087044e-06,8.075019425e-06
0.44,-9.486263601e-06,-9.270696534e-06,-6.326146815e-06,-2.066877816e-06,-1.604908383e-05,2.400180368e-06,-1.074766973e-05,4.382349618e-06,9.369143103e-06,2.454450961e-06,1.243358219e-05,2.139425648e-06,9.771454228e-06,1.284606426e-05,1.235669077e-05,6.942930182e-06,-8.063137417e-06,-6.073146050e-06,-9.615015517e-07,2.354803279e-06,-7.847040731e-06,9.424632014e-06,-4.620785345e-06,1.240039699e-05,1.019047618e-05,1.425591219e-05,-2.382317883e-06,7.249018548e-06,1.113442659e-05,6.026219213e-06
0.445,-5.614315967e-06,-4.595062884e-06,-2.657110201e-06,3.073396083e-06,-2.409203300e-06,7.267111648e-06,-1.971361971e-06,9.156851605e-06,1.536977080e-05,1.011931814e-05,1.846282867e-05,7.135245723e-06,1.700273881e-05,2.139905451e-05,1.959449506e-05,1.182137301e-05,-4.513747960e-06,-1.237856936e-06,2.842406520e-06,7.720672967e-06,1.123371872e-07,1.515392185e-05,-8.489790429e-08,1.963698787e-05,1.792877297e-05,2.193403291e-05,5.034394994e-06,1.503081071e-05,1.321913776e-05,7.418144891e-07
0.45,-5.096825075e-07,1.777907496e-06,2.554385480e-06,8.553445786e-06,1.061506675e-05,1.297069345e-05,6.506604060e-06,1.396145440e-05,2.049210403e-05,1.592264576e-05,2.303398426e-05,9.627118344e-06,2.157724641e-05,2.721072065e-05,2.346016335e-05,1.491283940e-05,-2.247198865e-08,5.141281200e-06,7.374215726e-06,1.288560187e-05,9.605833887e-06,1.890621232e-05,8.401104263e-06,2.445946803e-05,1.952905175e-05,2.557533042e-05,1.083656975e-05,1.884065838e-05,8.676594847e-07,5.505823177e-07
0.455,5.596249997e-06,8.782216579e-06,9.152989396e-06,1.419496221e-05,1.571354136e-05,1.844810490e-05,8.845892040e-06,1.838860770e-05,2.444357584e-05,1.981100895e-05,2.641162592e-05,1.055566205e-05,2.391927639e-05,2.990092939e-05,2.459680947e-05,1.682917932e-05,5.826785075e-06,1.266059370e-05,1.332042207e-05,1.752511397e-05,1.828288023e-05,2.083097547e-05,1.713362848e-05,2.672269075e-05,1.718658630e-05,2.612486733e-05,1.519521046e-05,1.971650186e-05,-8.063755658e-06,7.578718199e-06
0.46,1.219319874e-05,1.548795718e-05,1.675644338e-05,2.064034844e-05,1.544058976e-05,2.394529694e-05,7.275768326e-06,2.301179192e-05,2.833749185e-05,2.342907387e-05,2.985794082e-05,1.319537863e-05,2.630285429e-05,3.142769413e-05,2.615459611e-05,1.975210663e-05,1.305969951e-05,2.057423371e-05,2.089689349e-05,2.293118467e-05,2.535205363e-05,2.335997569e-05,2.228510433e-05,2.852055349e-05,1.690822436e-05,2.691408114e-05,1.966312099e-05,2.105772499e-05,5.392508439e-06,9.042076848e-06
0.465,1.763719552e-05,2.074556522e-05,2.363175578e-05,2.720803003e-05,1.707456339e-05,2.979492997e-05,8.131750899e-06,2.846324233e-05,3.266800213e-05,2.730638998e-05,3.360818092e-05,1.864596571e-05,2.962130405e-05,3.322933808e-05,2.958589508e-05,2.423477717e-05,1.960903308e-05,2.672148547e-05,2.813430735e-05,2.931359068e-05,3.006051056e-05,2.758285797e-05,2.306820619e-05,3.111933306e-05,2.119687106e-05,2.944280433e-05,2.403633054e-05,2.411430947e-05,1.089806390e-05,7.329388135e-06
0.47,1.950394431e-05,2.280897452e-05,2.680018676e-05,3.103467797e-05,2.238564452e-05,3.443791608e-05,1.292815829e-05,3.360721077e-05,3.559468608e-05,2.921709850e-05,3.572789723e-05,2.326711511e-05,3.163195908e-05,3.408758399e-05,3.233840313e-05,2.747088577e-05,2.210170440e-05,2.831581630e-05,3.155002229e-05,3.399232391e-05,3.099785132e-05,3.101726838e-05,2.145456769e-05,3.282008042e-05,2.586955498e-05,3.129384995e-05,2.557789298e-05,2.605370577e-05,-6.287995419e-06,5.897497241e-06
0.475,1.626790723e-05,2.014736237e-05,2.401227191e-05,2.916396487e-05,2.495078747e-05,3.452685462e-05,1.610837513e-05,3.499419459e-05,3.390331477e-05,2.586625920e-05,3.332918485e-05,2.172806393e-05,2.883887577e-05,3.118416277e-05,3.021927007e-05,2.547386271e-05,1.868107953e-05,2.424923917e-05,2.894917523e-05,3.314519043e-05,2.761471829e-05,2.972318329e-05,1.911847876e-05,3.040697985e-05,2.471603769e-05,2.859057154e-05,2.168738722e-05,2.281875338e-05,1.160602121e-06,1.337416395e-05
0.48,8.834173505e-06,1.308814932e-05,1.600804258e-05,2.167238866e-05,1.812572890e-05,2.788528766e-05,1.226692961e-05,2.928590904e-05,2.621840970e-05,1.648380783e-05,2.537818432e-05,1.287778820e-05,2.031559092e-05,2.340623339e-05,2.203124912e-05,1.734573827e-05,1.085837016e-05,1.645025851e-05,2.152487384e-05,2.567334360e-05,2.161735683e-05,2.267693207e-05,1.563159588e-05,2.281544997e-05,1.660449174e-05,2.044615753e-05,1.308339518e-05,1.372555842e-05,6.533413851e-06,1.173172616e-05
0.485,4.024717890e-07,4.431388241e-06,6.732068045e-06,1.240709182e-05,3.896002211e-06,1.657818346e-05,3.398105377e-06,1.714183696e-05,1.530067098e-05,4.666257771e-06,1.455568947e-05,1.939053548e-06,9.577206827e-06,1.347537423e-05,1.156711602e-05,7.163459386e-06,2.483745960e-06,8.703426396e-06,1.314792077e-05,1.512561439e-05,1.586705529e-05,1.360183090e-05,1.020450700e-05,1.309107122e-05,7.035244225e-06,1.071163276e-05,4.033361489e-06,2.962879828e-06,-7.165272033e-06,5.737263708e-06
0.49,-5.309384163e-06,-2.076586554e-06,9.589186883e-07,6.341901307e-06,-7.979350283e-06,6.545697498e-06,-3.050818184e-06,4.480683717e-06,6.792504659e-06,-3.641020855e-06,6.167033330e-06,-3.727425464e-06,2.434939630e-06,6.572647888e-06,4.880776832e-06,1.175927164e-06,-2.880905381e-06,4.117467983e-06,7.740790386e-06,7.503313090e-06,1.203104735e-05,8.176746077e-06,4.551272727e-06,6.493401019e-06,2.795108745e-06,5.221491903e-06,-5.676592311e-07,-3.436991014e-06,-5.253460609e-07,8.843375613e-06
0.495,-6.119493557e-06,-4.263433243e-06,1.191268693e-06,6.015072864e-06,-9.539159355e-06,3.401364247e-06,-2.622051028e-06,-1.332297346e-06,5.150298530e-06,-4.455248804e-06,4.555925510e-06,-1.069990023e-06,2.603118843e-06,6.499853047e-06,5.506938437e-06,2.737088168e-06,-3.680274118e-06,3.606306758e-06,7.181382032e-06,6.858327079e-06,9.999535570e-06,9.386426780e-06,2.650710326e-06,6.506276245e-06,5.913978572e-06,7.204826681e-06,1.535513228e-06,-2.131376449e-06,-3.504365382e-06,1.098031066e-05
0.5,-2.467098740e-06,-2.823933005e-06,6.211822848e-06,1.010745076e-05,-2.163892408e-06,7.891997199e-06,1.778919606e-06,2.249567795e-06,1.019458426e-05,1.246337178e-06,9.700506040e-06,6.379759056e-06,8.791200867e-06,1.259979117e-05,1.187733334e-05,9.595299280e-06,-4.621523026e-07,6.124611102e-06,1.083981705e-05,1.244852870e-05,9.366095101e-06,1.533367729e-05,6.797074871e-06,1.226101266e-05,1.289193109e-05,1.487754604e-05,8.814619535e-06,5.361581417e-06,-2.942765068e-06,7.290341314e-06
0.505,2.836955245e-06,-4.033405997e-07,1.211690196e-05,1.482999623e-05,5.720591380e-06,1.514277575e-05,4.277880526e-06,1.020867131e-05,1.716267633e-05,8.182702973e-06,1.680140325e-05,1.205085964e-05,1.556202073e-05,1.990633602e-05,1.866005966e-05,1.574955772e-05,4.579191943e-06,9.526851374e-06,1.607836144e-05,1.946605347e-05,1.021613315e-05,2.101317620e-05,1.421950630e-05,1.920428554e-05,1.861160012e-05,2.281147620e-05,1.706557763e-05,1.400243612e-05,1.683256471e-06,6.048667247e-06
0.51,6.085502821e-06,5.377619541e-07,1.489233827e-05,1.653814442e-05,7.435265214e-06,1.854206217e-05,2.757957798e-06,1.410380670e-05,2.021059794e-05,1.049325340e-05,1.956950582e-05,1.160699952e-05,1.719070584e-05,2.247201487e-05,2.048195861e-05,1.597625302e-05,8.183097397e-06,1.125653940e-05,1.924163320e-05,2.244504802e-05,1.183130870e-05,2.203884438e-05,1.868519020e-05,2.217479160e-05,2.004477413e-05,2.563662282e-05,2.162165589e-05,1.852555815e-05,-1.167532591e-06,1.007858370e-05
0.515,5.021492106e-06,-6.049077184e-07,1.295517475e-05,1.386942606e-05,3.723031296e-06,1.507751865e-05,-3.504777662e-07,9.772538905e-06,1.671730203e-05,5.889642109e-06,1.504353178e-05,5.316018649e-06,1.172821879e-05,1.762846369e-05,1.539747937e-05,9.366001226e-06,7.612498133e-06,9.459349052e-06,1.761847237e-05,1.896220623e-05,1.174295011e-05,1.747721197e-05,1.621508105e-05,1.880195594e-05,1.703027458e-05,2.153266857e-05,1.981805272e-05,1.658458148e-05,-3.793146970e-06,7.472497070e-06
0.52,8.501948711e-07,-2.344960259e-06,8.264315882e-06,8.588739353e-06,2.618830025e-07,7.680646687e-06,-2.707517031e-06,1.224352320e-06,9.255824241e-06,-2.576720413e-06,6.190570429e-06,-3.195948375e-06,2.472633129e-06,8.207695916e-06,6.207392231e-06,-3.687019687e-07,3.134267374e-06,4.719634947e-06,1.193238779e-05,1.137512954e-05,7.795260287e-06,1.031944210e-05,9.117768391e-06,1.126498637e-05,1.150118198e-05,1.349967493e-05,1.283909964e-05,1.021990424e-05,3.970870174e-06,4.784344649e-06
0.525,-2.065622077e-06,-2.310944265e-06,5.097755491e-06,4.670053902e-06,9.100108811e-07,2.613783764e-06,-4.816771253e-06,-3.345572819e-06,3.685242423e-06,-8.547069201e-06,-2.051525295e-07,-9.528696845e-06,-4.316199906e-06,7.896666188e-07,-1.193285365e-06,-7.580359088e-06,-1.161712912e-06,6.402011162e-07,6.833264251e-06,5.311868529e-06,1.449508700e-06,5.539691193e-06,3.810416888e-06,5.086557383e-06,6.816882599e-06,7.447640351e-06,5.383314466e-06,4.611484185e-06,8.624580211e-06,4.234877258e-06
0.53,3.862136238e-07,8.085771089e-07,6.801316261e-06,5.539111226e-06,4.048288924e-06,4.054327452e-06,-7.503483341e-06,3.342622872e-07,4.518810665e-06,-7.164372723e-06,8.715897421e-07,-1.069704140e-05,-4.116461835e-06,7.172203919e-07,-1.892002154e-06,-8.503809372e-06,-4.318361808e-07,1.369020847e-06,7.418039760e-06,5.437821675e-06,-2.345516815e-06,6.616506745e-06,4.389058024e-06,5.099683160e-06,6.388272684e-06,7.818350042e-06,2.313863569e-06,4.238194419e-06,-4.119525124e-06,4.345252657e-06
0.535,7.970605415e-06,5.911702163e-06,1.273622549e-05,1.101765792e-05,5.112756678e-06,1.050709027e-05,-8.867713657e-06,8.533088789e-06,1.107099045e-05,8.207014704e-07,8.273256401e-06,-6.652619368e-06,2.235908619e-06,7.600174616e-06,4.116402670e-06,-3.775374829e-06,6.006284666e-06,7.475097958e-06,1.409446608e-05,1.144668734e-05,1.806929564e-07,1.258291236e-05,8.646968317e-06,1.122606497e-05,1.086207268e-05,1.373899398e-05,4.469012301e-06,8.962424891e-06,1.107160677e-06,7.408299319e-06
0.54,1.558255756e-05,1.012667520e-05,1.843469276e-05,1.695005273e-05,2.036158649e-06,1.632801000e-05,-6.017157250e-06,1.370757794e-05,1.790371613e-05,9.443554512e-06,1.577000563e-05,-5.437837160e-07,9.328350997e-06,1.551956665e-05,1.173181559e-05,2.289058102e-06,1.329895346e-05,1.461052710e-05,2.134753758e-05,1.806452151e-05,7.405952580e-06,1.831444797e-05,1.083595186e-05,1.806704436e-05,1.638552381e-05,1.943799857e-05,7.868099471e-06,1.387421849e-05,1.301958996e-05,8.274139761e-06
0.545,1.779845455e-05,1.141248597e-05,1.960473497e-05,1.884765453e-05,-1.997633853e-06,1.715541505e-05,6.006606901e-07,1.262548522e-05,1.974194013e-05,1.282381753e-05,1.803341092e-05,3.432708047e-06,1.219166476e-05,1.842123830e-05,1.532418897e-05,5.523312851e-06,1.572004667e-05,1.737743562e-05,2.288371711e-05,1.985894422e-05,1.382734951e-05,1.877347205e-05,8.233670253e-06,1.967483258e-05,1.732889124e-05,1.949345948e-05,7.913538802e-06,1.398906165e-05,1.285750182e-05,3.704121044e-06
0.55,1.445147944e-05,1.079459511e-05,1.648199655e-05,1.651850911e-05,-1.186566773e-06,1.413489087e-05,6.847586683e-06,9.777343880e-06,1.652852897e-05,1.078431497e-05,1.580333794e-05,3.788001945e-06,1.105124077e-05,1.588783568e-05,1.420501925e-05,5.772036068e-06,1.287677589e-05,1.489142100e-05,1.833369589e-05,1.659050408e-05,1.584494810e-05,1.384419994e-05,4.308565886e-06,1.546550529e-05,1.208867462e-05,1.431564214e-05,4.571976292e-06,9.606645289e-06,6.472677248e-06,6.552938791e-06
0.555,1.107633887e-05,1.149266588e-05,1.372694931e-05,1.447276872e-05,7.144492789e-06,1.251408024e-05,9.718814986e-06,1.221781459e-05,1.332789448e-05,8.914323001e-06,1.471691298e-05,3.428544580e-06,1.079349112e-05,1.327359422e-05,1.316198871e-05,6.837953868e-06,1.022154427e-05,1.169757476e-05,1.380336362e-05,1.331053084e-05,1.494049809e-05,8.646400086e-06,4.793103363e-06,1.092574482e-05,5.573303855e-06,9.889162424e-06,2.534613578e-06,6.328294028e-06,-3.026850196e-06,9.851365578e-06
0.56,1.292775719e-05,1.514054626e-05,1.522156361e-05,1.673847374e-05,1.894431603e-05,1.561264902e-05,1.082476287e-05,2.111872920e-05,1.455600733e-05,1.229387067e-05,1.860003640e-05,6.480756954e-06,1.516031993e-05,1.553821250e-05,1.678714156e-05,1.191960951e-05,1.255812934e-05,1.236796924e-05,1.481439590e-05,1.443404421e-05,1.453518013e-05,8.158957108e-06,1.072531106e-05,1.153793255e-05,4.345237018e-06,1.123406545e-05,5.528928633e-06,8.868886394e-06,9.443806325e-06,4.520909916e-06
0.565,1.859455193e-05,1.897254222e-05,1.902153879e-05,2.132473516e-05,2.578815834e-05,2.031282606e-05,1.327109793e-05,2.913300467e-05,1.835629856e-05,1.913245127e-05,2.427909616e-05,1.282002074e-05,2.164292538e-05,2.110736753e-05,2.342700098e-05,1.900346853e-05,1.765759798e-05,1.562666302e-05,1.925028208e-05,1.798838952e-05,1.483221382e-05,1.141377789e-05,1.615484184e-05,1.607003712e-05,8.969363497e-06,1.629721676e-05,1.106511046e-05,1.508471392e-05,1.687478749e-05,5.085848214e-06
0.57,2.054454138e-05,1.765059373e-05,1.845110991e-05,2.105699670e-05,2.175006563e-05,1.930564291e-05,1.583841359e-05,2.683759735e-05,1.765269651e-05,2.157857747e-05,2.398884177e-05,1.664649551e-05,2.306597944e-05,2.276353165e-05,2.590338245e-05,2.166370426e-05,1.777502996e-05,1.511956513e-05,1.883465851e-05,1.692350821e-05,1.249389085e-05,1.194083411e-05,1.356496393e-05,1.705945308e-05,1.256851655e-05,1.746648023e-05,1.222379228e-05,1.735360944e-05,6.055514811e-06,5.610887648e-06
0.575,1.282875929e-05,8.628250197e-06,9.050247577e-06,1.097690900e-05,8.689486010e-06,8.493460025e-06,1.293610137e-05,1.203652532e-05,7.626486927e-06,1.369244944e-05,1.349472261e-05,1.190631788e-05,1.494505770e-05,1.526474205e-05,1.906593747e-05,1.538999842e-05,8.134280800e-06,6.654691418e-06,8.316622129e-06,6.883734844e-06,5.666170488e-06,4.789548027e-06,1.850973023e-06,8.854877047e-06,8.240992938e-06,9.866865281e-06,5.283981030e-06,1.063878931e-05,1.229952390e-05,6.424459082e-06
0.58,-1.954781583e-06,-4.386242838e-06,-5.742321555e-06,-5.302047555e-06,-5.271297617e-06,-7.900034818e-06,1.739906057e-06,-7.416375333e-06,-8.064775394e-06,-1.576012383e-06,-2.517120125e-06,-6.033287908e-07,1.016232044e-06,1.712174899e-06,6.175975496e-06,3.093197390e-06,-6.866772087e-06,-6.028598485e-06,-7.676542244e-06,-7.870163879e-06,-2.237097637e-06,-7.192593216e-06,-1.139003587e-05,-5.267292573e-06,-2.564683695e-06,-2.428445970e-06,-5.231434667e-06,-1.369647616e-06,9.581874952e-06,8.438377494e-06
0.585,-1.414705193e-05,-1.389159920e-05,-1.666932481e-05,-1.766708496e-05,-1.279263031e-05,-2.016597443e-05,-1.216036319e-05,-2.007264979e-05,-1.945446796e-05,-1.415489975e-05,-1.384658895e-05,-1.256794106e-05,-9.330487188e-06,-8.506844049e-06,-3.323029145e-06,-6.556713076e-06,-1.694027812e-05,-1.383350166e-05,-1.816765894e-05,-1.741941356e-05,-5.232939308e-06,-1.507342201e-05,-1.604204938e-05,-1.516912337e-05,-1.057267568e-05,-9.565616754e-06,-1.027576861e-05,-9.183480449e-06,2.024652648e-05,1.247082229e-06
0.59,-1.586432044e-05,-1.491661591e-05,-1.697253982e-05,-1.861133603e-05,-1.291738678e-05,-2.150343194e-05,-1.875580005e-05,-2.025011647e-05,-1.927153243e-05,-1.597191238e-05,-1.389565626e-05,-1.555948957e-05,-9.543061689e-06,-8.482435814e-06,-2.846878227e-06,-6.970147830e-06,-1.553126800e-05,-1.099528455e-05,-1.639931162e-05,-1.553939200e-05,-1.126794270e-06,-1.237035424e-05,-8.460900800e-06,-1.355485479e-05,-8.175042724e-06,-5.637459980e-06,-5.278998755e-06,-6.842183689e-06,3.912925901e-06,2.186619598e-06
0.595,-8.234505471e-06,-9.074501729e-06,-8.649140207e-06,-1.022731689e-05,-9.978355462e-06,-1.378973762e-05,-1.391950760e-05,-1.164105544e-05,-9.744973351e-06,-8.130305565e-06,-5.382258736e-06,-9.066431943e-06,-1.768143992e-06,-2.758215351e-07,4.937041134e-06,2.008833535e-07,-5.760575982e-06,-8.203249790e-07,-6.292026728e-06,-5.767664484e-06,5.850377738e-06,-1.654226158e-06,5.209074951e-06,-3.217512640e-06,2.389920007e-06,5.255406884e-06,5.125482886e-06,2.206284252e-06,-8.528631757e-06,1.936790416e-06
0.6,1.723757708e-07,-2.669064880e-06,-3.804292153e-07,-1.997962235e-06,-8.073842679e-06,-5.275648422e-06,-4.262322195e-06,-2.816131706e-06,-2.908962319e-07,9.504628063e-07,2.814406940e-06,-6.571511390e-07,5.699190337e-06,7.402230019e-06,1.107295032e-05,6.958291384e-06,3.091012350e-06,7.441538121e-06,1.754373821e-06,2.117220966e-06,9.044371376e-06,7.674268536e-06,1.437202710e-05,5.772423072e-06,1.116120680e-05,1.300637234e-05,1.160434123e-05,8.785751209e-06,1.409881930e-06,-1.498939118e-06
0.605,1.683131634e-06,-1.181049599e-06,5.460510742e-07,-1.857453301e-06,-7.835190035e-06,-2.938836575e-06,-4.035439350e-07,1.123978373e-07,1.364833786e-06,3.839966885e-06,4.015273789e-06,1.737567796e-06,6.379590373e-06,7.599505844e-06,9.268067739e-06,6.853236645e-06,4.262714866e-06,7.134232564e-06,8.128951926e-07,1.365908520e-06,5.398469112e-06,8.090620807e-06,1.285072859e-05,5.796968187e-06,1.042262255e-05,1.119884238e-05,8.888303765e-06,7.031840709e-06,6.784234179e-06,-2.734885222e-06
0.61,-3.924840233e-06,-5.360080509e-06,-5.728925333e-06,-9.469490356e-06,-8.249842198e-06,-7.016694947e-06,-5.822917172e-06,-2.849547077e-06,-4.320543052e-06,1.074578605e-07,-1.006611725e-06,-2.874184886e-06,9.199958527e-07,1.062119017e-06,1.469616198e-06,7.513031161e-07,-1.458196789e-06,-4.133416032e-07,-7.064451795e-06,-6.135078852e-06,-2.600670007e-06,4.051841999e-07,3.390352040e-06,-1.701789446e-06,1.809849927e-06,2.520073644e-06,-1.615371275e-07,-6.310917708e-07,1.516103433e-06,-5.328575110e-07
0.615,-1.046434849e-05,-1.155849830e-05,-1.285468175e-05,-1.756051768e-05,-9.350729678e-06,-1.211317615e-05,-1.360906820e-05,-7.221802566e-06,-1.032923014e-05,-5.057377976e-06,-6.063947122e-06,-8.830563221e-06,-4.706124591e-06,-5.449721145e-06,-4.957701020e-06,-4.904914889e-06,-8.119302569e-06,-8.109741553e-06,-1.413931801e-05,-1.272579430e-05,-9.813293059e-06,-7.783289712e-06,-5.519104408e-06,-8.680639173e-06,-6.225648212e-06,-4.809965137e-06,-8.342015964e-06,-6.849510147e-06,6.768393687e-06,3.574995788e-06
0.62,-1.172346659e-05,-1.480060380e-05,-1.446103443e-05,-1.883120981e-05,-1.113829940e-05,-1.254789481e-05,-1.439871358e-05,-7.960174149e-06,-1.006063191e-05,-6.510817245e-06,-5.601559314e-06,-1.024585948e-05,-5.126552662e-06,-5.670177386e-06,-4.476069962e-06,-4.700276794e-06,-1.044542557e-05,-9.620390960e-06,-1.426568191e-05,-1.230671572e-05,-1.220980749e-05,-9.163152088e-06,-6.928930992e-06,-8.352623780e-06,-6.770409555e-06,-4.848424042e-06,-1.069402787e-05,-6.443756691e-06,7.722417970e-06,4.589469667e-06
0.625,-6.516339677e-06,-1.187747645e-05,-9.100239975e-06,-1.159704985e-05,-1.078303362e-05,-6.619609869e-06,-6.410730049e-06,-2.493447888e-06,-2.550322590e-06,-2.845693756e-06,1.239975323e-06,-6.255529092e-06,3.998168799e-07,1.384930000e-06,2.463361166e-06,1.208722372e-06,-7.292553447e-06,-3.850122218e-06,-6.991502738e-06,-4.845985536e-06,-8.528350800e-06,-2.364120611e-06,-4.652902652e-07,-4.158575870e-07,2.009793240e-07,1.904300842e-06,-7.308555482e-06,6.511906992e-09,-1.163490565e-06,-3.577844429e-06
0.63,1.467579218e-06,-3.190662184e-06,-3.595342593e-07,-1.368284260e-07,-4.130592707e-06,2.943313241e-06,3.163856786e-06,7.854648541e-06,7.894964366e-06,4.060902921e-06,1.102293553e-05,-4.740514833e-07,8.496361050e-06,1.171304638e-05,1.120647875e-05,8.259193773e-06,-1.064041051e-06,5.425482188e-06,3.546777361e-06,4.859167623e-06,-3.553573680e-07,7.966333996e-06,8.360151268e-06,1.007327247e-05,9.441582709e-06,1.060482560e-05,-1.210759487e-06,8.227537641e-06,8.230248136e-07,2.297491154e-06
0.635,7.382675949e-06,7.058644754e-06,6.528530503e-06,9.023044107e-06,8.119690944e-06,1.127457545e-05,6.133499908e-06,1.802244708e-05,1.570085140e-05,1.104264899e-05,1.896875502e-05,3.192600713e-06,1.475694481e-05,1.995322249e-05,1.731130241e-05,1.196486589e-05,4.623801441e-06,1.288744324e-05,1.195966471e-05,1.139023257e-05,8.268520738e-06,1.530982288e-05,1.306871039e-05,1.737578528e-05,1.553928317e-05,1.669983498e-05,4.867842456e-06,1.433644948e-05,-7.272787369e-06,4.716675118e-06
0.64,8.681407797e-06,1.304706483e-05,8.286901858e-06,1.148278253e-05,1.758301323e-05,1.434595969e-05,1.630668868e-06,2.174408103e-05,1.773693935e-05,1.486727754e-05,2.181213722e-05,3.558351920e-06,1.649611729e-05,2.293232305e-05,1.925362063e-05,1.118100851e-05,6.957355779e-06,1.493601598e-05,1.437078773e-05,1.202758136e-05,1.253292710e-05,1.580841765e-05,1.112403141e-05,1.876951235e-05,1.633419055e-05,1.862056106e-05,9.670949276e-06,1.701582699e-05,8.581993629e-06,4.480530476e-06
0.645,6.246011324e-06,1.157889224e-05,5.395803498e-06,7.608562161e-06,1.512246363e-05,1.147912642e-05,-3.547557532e-06,1.629144290e-05,1.481117338e-05,1.343854554e-05,1.954130498e-05,2.127641511e-06,1.409754029e-05,2.130106179e-05,1.842666520e-05,8.205413234e-06,5.408582804e-06,1.147035270e-05,1.030900750e-05,7.861681542e-06,1.032026419e-05,1.049982020e-05,5.368012768e-06,1.553192813e-05,1.315733466e-05,1.767285046e-05,1.299566537e-05,1.733450885e-05,-3.131413183e-06,1.616660412e-06
0.65,3.362893972e-06,5.285417080e-06,1.611181331e-06,2.275808758e-06,1.775498550e-06,6.282645075e-06,-2.131267688e-06,5.970087140e-06,1.097815743e-05,7.812747188e-06,1.562005164e-05,1.531068852e-06,1.088193331e-05,1.889936732e-05,1.780342037e-05,6.773126921e-06,2.375495305e-06,5.825260584e-06,3.513832542e-06,3.038161282e-06,4.663396479e-06,4.425997957e-06,1.325980358e-06,1.179376249e-05,9.370272528e-06,1.663357898e-05,1.532643165e-05,1.766623793e-05,4.764454255e-06,-6.572903492e-07
0.655,3.330301943e-06,8.692468505e-07,1.309558823e-06,1.376794924e-06,-9.765988853e-06,4.510729649e-06,6.332227164e-06,-1.441636003e-07,1.090525348e-05,2.811142440e-06,1.484093522e-05,3.886161248e-06,1.102757571e-05,1.990741310e-05,2.003791545e-05,9.504441256e-06,1.659405183e-06,2.572570349e-06,1.999600520e-08,2.236366822e-06,1.541817351e-06,3.002860777e-06,2.552413106e-06,1.183566513e-05,8.265585458e-06,1.790142081e-05,1.747729652e-05,2.016140559e-05,1.946329053e-06,3.534145301e-06
0.66,6.775211502e-06,2.795367080e-06,5.855092642e-06,6.804847308e-06,-7.557574880e-06,9.216537589e-06,1.470044914e-05,4.028998830e-06,1.612422808e-05,3.560483205e-06,1.922296426e-05,9.162619103e-06,1.594998675e-05,2.503539701e-05,2.518684942e-05,1.579739210e-05,4.888130479e-06,3.985507391e-06,3.328918109e-06,7.046759669e-06,4.071889145e-06,7.637898829e-06,7.605820436e-06,1.663531904e-05,1.064894971e-05,2.143083604e-05,1.943391670e-05,2.470241385e-05,1.174692327e-05,8.354294100e-06
0.665,1.064581498e-05,8.512958997e-06,1.186711281e-05,1.412491393e-05,5.956706606e-06,1.716260418e-05,1.438001599e-05,1.522957846e-05,2.290608265e-05,1.002920531e-05,2.528262022e-05,1.421243138e-05,2.204366547e-05,2.994122309e-05,2.960815477e-05,2.147499038e-05,9.190569807e-06,7.965453648e-06,1.060877845e-05,1.398777561e-05,9.285211507e-06,1.414483143e-05,1.126725181e-05,2.221798511e-05,1.366976685e-05,2.393211408e-05,1.937719930e-05,2.788065628e-05,1.194876543e-05,3.002118558e-06
0.67,1.055684973e-05,1.093882649e-05,1.381872292e-05,1.615903881e-05,1.554458353e-05,2.093179784e-05,3.174363456e-06,2.311056174e-05,2.471715305e-05,1.578730281e-05,2.634873098e-05,1.436820693e-05,2.303964020e-05,2.847580609e-05,2.824903617e-05,2.146272073e-05,9.530848285e-06,9.984184856e-06,1.473810889e-05,1.700266991e-05,1.168942474e-05,1.623078700e-05,9.316579929e-06,2.247332693e-05,1.301353670e-05,2.123497845e-05,1.496589335e-05,2.520017032e-05,5.675569905e-06,8.895586713e-06
0.675,5.200889235e-06,6.266183076e-06,9.428150537e-06,1.008662797e-05,9.930855527e-06,1.595406923e-05,-1.172889211e-05,1.997415210e-05,1.827428595e-05,1.393601533e-05,1.895184592e-05,7.740932837e-06,1.599607995e-05,1.879693784e-05,1.954381281e-05,1.434673621e-05,4.236715686e-06,7.753863293e-06,1.137352481e-05,1.316189529e-05,9.775102371e-06,1.158594751e-05,2.776036999e-06,1.507750325e-05,7.475261889e-06,1.271662470e-05,6.497804120e-06,1.565084809e-05,5.056865987e-07,1.442679650e-05
0.68,-1.517900737e-06,-1.478428342e-06,2.494914876e-06,8.871048854e-07,-4.946440032e-06,5.598542149e-06,-1.874170749e-05,8.383267448e-06,7.481756837e-06,4.712057001e-06,7.056511134e-06,-1.679193541e-06,5.043797454e-06,6.243649114e-06,8.119652979e-06,4.615623277e-06,-2.322850113e-06,3.765151863e-06,3.790011814e-06,5.915144132e-06,7.516176948e-06,4.487291602e-06,-2.608541322e-06,4.687237701e-06,1.116394246e-06,3.193392273e-06,-1.736998732e-06,3.978033907e-06,-6.084310448e-06,1.000297492e-05
0.685,-3.684516493e-06,-4.700338712e-06,-5.172057882e-07,-3.309276065e-06,-1.215841941e-05,-1.653657151e-06,-1.160314872e-05,-1.490922020e-06,3.950220184e-07,-3.992409257e-06,-1.027896007e-06,-6.575385274e-06,-1.908940986e-06,-9.718655928e-07,1.352431353e-06,-7.198895962e-07,-3.759996617e-06,2.487478765e-06,-3.983102332e-07,1.768425188e-06,8.773128349e-06,1.554669089e-06,-1.716853738e-06,-9.179292687e-07,-4.123379825e-07,-8.896118533e-07,-4.622177642e-06,-2.877933985e-06,1.696995773e-05,5.863837766e-06
0.69,6.128466192e-07,-8.005145778e-07,2.778793138e-06,3.145013916e-07,-3.154254105e-06,-6.713579628e-07,4.297403629e-06,-2.177053280e-06,1.484668731e-06,-4.721698615e-06,-6.128612794e-07,-3.362160855e-06,-9.476958541e-07,3.737666666e-07,2.264408483e-06,1.166034607e-06,1.341171612e-06,4.991354564e-06,2.423374298e-06,3.370135586e-06,1.159442775e-05,4.661624304e-06,4.652867824e-06,1.417303783e-06,3.795541469e-06,2.119703194e-06,-1.365334207e-06,-2.406585051e-06,-5.906076578e-06,8.360751796e-06
0.695,6.821418075e-06,4.836363266e-06,7.903975503e-06,6.220210608e-06,1.198830384e-05,5.211474478e-06,1.559246721e-05,4.050083121e-06,7.238651415e-06,1.428473967e-06,4.848661439e-06,3.462871983e-06,3.792801329e-06,5.370328740e-06,6.240022039e-06,5.696134391e-06,7.325132933e-06,7.196409957e-06,7.822491219e-06,6.649143452e-06,9.980256960e-06,8.777151241e-06,9.960722628e-06,6.893690172e-06,8.175952978e-06,7.042682780e-06,3.128336606e-06,8.620240687e-07,1.510601461e-06,6.146755950e-06
0.7,8.224310806e-06,4.985846540e-06,8.181215876e-06,6.632996115e-06,1.557405933e-05,8.161868605e-06,1.255440737e-05,8.590756744e-06,1.010838124e-05,5.961341741e-06,7.729199446e-06,5.263521877e-06,4.575995575e-06,6.292796259e-06,5.739151664e-06,5.265454343e-06,7.132470289e-06,4.206138872e-06,8.389878124e-06,5.553453822e-06,1.377022351e-06,7.484925635e-06,7.873115736e-06,7.943164172e-06,6.322976106e-06,7.090577619e-06,2.848239102e-06,1.487197597e-07,2.673676057e-06,9.792140921e-07
0.705,2.807791775e-06,-1.318891199e-06,2.031447557e-06,1.809302549e-07,2.064789359e-06,4.512726915e-06,-1.835625851e-06,6.060077416e-06,6.633041751e-06,2.380416167e-06,4.407417352e-06,-1.806322204e-06,-1.548312754e-06,8.300916004e-07,-1.598918615e-06,-2.750167502e-06,-2.173586375e-07,-3.855202339e-06,2.215069980e-06,-8.030147783e-07,-9.353480387e-06,2.347813639e-07,-1.589100468e-06,2.471489971e-06,-1.909461609e-06,1.039098745e-06,-3.338356158e-06,-6.222381471e-06,1.210008235e-05,-4.300403320e-06
0.71,-4.706256585e-06,-8.102007197e-06,-5.208583507e-06,-6.696260624e-06,-1.587891552e-05,-1.580342025e-06,-1.466458868e-05,-6.451712474e-07,7.942720122e-07,-6.649624717e-06,-1.295651408e-06,-1.240257856e-05,-9.577173965e-06,-5.718120464e-06,-1.025294297e-05,-1.279574621e-05,-8.555921246e-06,-1.115139580e-05,-4.979295105e-06,-6.820111366e-06,-1.466809409e-05,-6.811091415e-06,-1.172964386e-05,-4.019631431e-06,-9.946689350e-06,-5.518143020e-06,-1.073575351e-05,-1.293340752e-05,1.007513722e-05,-2.192665269e-06
0.715,-7.897198555e-06,-9.510166884e-06,-7.018122020e-06,-7.071290324e-06,-2.134603826e-05,-3.311070223e-06,-1.558698263e-05,-4.527807758e-06,-8.646350921e-07,-1.226945963e-05,-2.856219090e-06,-1.720047624e-05,-1.197174118e-05,-6.447652676e-06,-1.252860737e-05,-1.639520560e-05,-1.095672794e-05,-1.161903706e-05,-6.321597941e-06,-6.502680660e-06,-1.218730034e-05,-7.249983245e-06,-1.504354873e-05,-4.671021333e-06,-1.129317192e-05,-6.159960128e-06,-1.373510493e-05,-1.327921441e-05,8.000880851e-06,4.368384234e-06
0.72,-5.137357447e-06,-5.886948678e-06,-2.499940195e-06,-1.049085314e-06,-1.064954876e-05,1.121755037e-06,-6.544373970e-06,-2.196266027e-06,3.564628007e-06,-8.833794975e-06,1.833147549e-06,-1.222515350e-05,-6.440661496e-06,-9.141062165e-08,-6.370671201e-06,-1.041162116e-05,-6.392165258e-06,-4.796018122e-06,-1.175826816e-06,3.987098351e-08,-6.295561882e-06,-8.793042397e-07,-9.639636556e-06,1.435109630e-06,-5.815299012e-06,-8.479730673e-08,-1.097768928e-05,-5.995141195e-06,1.128166606e-05,3.320678259e-06
0.725,-4.947156574e-07,-2.024614480e-06,3.253907435e-06,4.969922910e-06,4.725397164e-06,7.137323635e-06,1.318995639e-06,3.598842985e-06,9.971266027e-06,7.951488877e-07,8.905235070e-06,-2.293236470e-06,2.373187279e-06,8.357963235e-06,3.102544355e-06,2.898927821e-07,3.061391313e-07,4.057373894e-06,4.893448474e-06,6.991941766e-06,-2.128744891e-06,6.844269816e-06,-3.289269106e-07,9.030151983e-06,1.334299449e-06,7.878706097e-06,-5.424109675e-06,3.959863559e-06,-2.034572018e-06,3.282468085e-06
0.73,1.427759486e-06,-7.466164679e-07,5.177022516e-06,5.835805461e-06,1.179926020e-05,9.597436293e-06,6.797522813e-08,8.245286826e-06,1.352720971e-05,9.192803428e-06,1.347385168e-05,4.652619876e-06,8.407284109e-06,1.350099545e-05,9.373685738e-06,8.084707401e-06,4.215662042e-06,9.213208028e-06,6.830668706e-06,9.280385903e-06,9.292508966e-08,1.100353773e-05,6.120720670e-06,1.299225072e-05,6.027136671e-06,1.288249610e-05,-2.400538245e-07,1.079864164e-05,6.996840920e-06,4.074541637e-06
0.735,4.789749861e-07,-1.996496316e-07,3.473343033e-06,2.932936366e-06,8.696207175e-06,8.477577634e-06,-6.697362177e-06,1.029148402e-05,1.392363018e-05,1.214062609e-05,1.474344832e-05,5.516668766e-06,1.010277025e-05,1.467889020e-05,1.074954393e-05,9.693964049e-06,4.897118523e-06,9.351725423e-06,5.286748444e-06,7.545670499e-06,3.636638972e-06,1.170945107e-05,6.785713231e-06,1.343918918e-05,8.820005830e-06,1.447033441e-05,4.201653387e-06,1.307686252e-05,-6.501715035e-06,2.192444321e-06
0.74,3.843193151e-07,2.435194910e-06,2.504259465e-06,1.616864964e-06,3.475928490e-06,8.048393682e-06,-8.259429355e-06,1.165093896e-05,1.474207619e-05,1.158859125e-05,1.572312960e-05,3.818270347e-06,1.052461791e-05,1.514168445e-05,1.064662994e-05,7.981816444e-06,5.366433958e-06,7.604557485e-06,4.851827982e-06,6.536880439e-06,9.643379828e-06,1.248549013e-05,4.427729048e-06,1.420025730e-05,1.230912517e-05,1.544705931e-05,9.254215132e-06,1.356059715e-05,6.544039715e-07,3.322577288e-06
0.745,4.006570070e-06,6.595403575e-06,5.425304762e-06,4.789841444e-06,3.632258806e-06,1.143269450e-05,1.377192045e-06,1.414780729e-05,1.864364589e-05,1.185915554e-05,1.894242549e-05,4.501021729e-06,1.280921136e-05,1.747913396e-05,1.284948396e-05,7.756608253e-06,7.946574298e-06,7.864162353e-06,8.445580049e-06,9.651964856e-06,1.534669898e-05,1.562064910e-05,4.461505868e-06,1.760803096e-05,1.666809525e-05,1.781805467e-05,1.521436396e-05,1.525309170e-05,6.715757605e-06,-2.308191978e-06
0.75,1.016403239e-05,9.237010308e-06,1.098576015e-05,1.030973299e-05,9.285196316e-06,1.728883664e-05,1.701921016e-05,1.737989128e-05,2.442715986e-05,1.458588382e-05,2.365791509e-05,8.453567774e-06,1.679177129e-05,2.110459438e-05,1.761927220e-05,1.089050073e-05,1.213830606e-05,1.154440393e-05,1.460365156e-05,1.589749731e-05,1.820047846e-05,2.015360098e-05,1.009766257e-05,2.214100415e-05,1.935071074e-05,2.094824133e-05,2.055420830e-05,1.853513585e-05,-4.049575163e-06,-1.654082537e-06
0.755,1.500103552e-05,9.095436453e-06,1.532616839e-05,1.411471106e-05,1.538607295e-05,2.165867937e-05,2.731216927e-05,1.978010267e-05,2.860066027e-05,1.767019424e-05,2.702063112e-05,1.233014018e-05,1.986257150e-05,2.372043799e-05,2.212851082e-05,1.534642657e-05,1.590084115e-05,1.707468377e-05,1.964730621e-05,2.150520625e-05,1.953168757e-05,2.367199464e-05,1.945967191e-05,2.472754546e-05,1.859796034e-05,2.304144020e-05,2.344838836e-05,2.161651673e-05,-2.180255267e-06,1.424111682e-06
0.76,1.543680333e-05,7.841055806e-06,1.558009180e-05,1.403055822e-05,1.715741041e-05,2.158629493e-05,2.506748120e-05,2.018128498e-05,2.844726738e-05,1.783718643e-05,2.663099438e-05,1.246973475e-05,1.966728623e-05,2.361607467e-05,2.331945098e-05,1.765668263e-05,1.752401771e-05,2.121293052e-05,2.085697054e-05,2.304111096e-05,2.209355593e-05,2.443662142e-05,2.658381066e-05,2.368653540e-05,1.536195347e-05,2.282926747e-05,2.299982079e-05,2.234641507e-05,-8.255128500e-06,-1.349694343e-06
0.765,1.084155723e-05,6.535716422e-06,1.115282272e-05,9.911915237e-06,1.238257971e-05,1.628068736e-05,1.248889897e-05,1.755328425e-05,2.303562207e-05,1.314016699e-05,2.146041364e-05,7.984320315e-06,1.529637078e-05,1.997448027e-05,1.977517265e-05,1.558505065e-05,1.589842523e-05,2.070332090e-05,1.714535358e-05,1.873132991e-05,2.480371471e-05,2.142302745e-05,2.565873779e-05,1.885562891e-05,1.120970232e-05,1.947757953e-05,1.897575649e-05,1.922131819e-05,2.135487866e-06,-9.524333678e-06
0.77,2.447489540e-06,3.040853236e-06,2.739179349e-06,1.862887764e-06,1.290534634e-06,6.208851901e-06,-2.209354454e-06,1.050106753e-05,1.270115845e-05,3.828253126e-06,1.165101213e-05,7.207686309e-07,7.069253206e-06,1.242001713e-05,1.200539199e-05,9.255347476e-06,1.035892776e-05,1.407119835e-05,8.386777569e-06,8.527460128e-06,2.258840202e-05,1.399973705e-05,1.577906571e-05,1.044366246e-05,5.973541209e-06,1.243620400e-05,1.168549104e-05,1.198832692e-05,-5.063363387e-06,-2.171524816e-06
0.775,-7.330679038e-06,-4.941707131e-06,-8.082278908e-06,-9.382196871e-06,-1.264842220e-05,-6.833588325e-06,-1.170731478e-05,-1.005094997e-06,-5.242707884e-07,-7.416585717e-06,-8.092943903e-07,-6.239997732e-06,-3.090453348e-06,2.107343175e-06,2.503178480e-06,1.219093940e-06,1.794045368e-06,3.274137421e-06,-3.906765764e-06,-5.188479877e-06,1.275303345e-05,3.382561911e-06,2.578500306e-06,-2.994595227e-07,-7.945696555e-07,3.001638772e-06,3.129761331e-06,2.725113970e-06,-1.211916474e-05,-2.508345768e-06
0.78,-1.493038874e-05,-1.483233739e-05,-1.806447551e-05,-2.030404767e-05,-2.247304915e-05,-1.856942677e-05,-1.363356080e-05,-1.314529465e-05,-1.197592208e-05,-1.574625417e-05,-1.126902433e-05,-9.766623843e-06,-1.104937293e-05,-6.880281682e-06,-4.530812748e-06,-4.327770969e-06,-6.294435891e-06,-6.504829808e-06,-1.538198053e-05,-1.711582498e-05,3.006354496e-08,-5.937560173e-06,-5.370027105e-06,-9.486697503e-06,-6.652238428e-06,-4.462002410e-06,-2.549516252e-06,-4.020985298e-06,1.149261249e-06,-4.856666686e-06
0.785,-1.678048667e-05,-1.981885452e-05,-2.290008670e-05,-2.523552619e-05,-2.193499853e-05,-2.335129928e-05,-1.025554100e-05,-1.934629900e-05,-1.604511847e-05,-1.649297099e-05,-1.433363342e-05,-7.996719372e-06,-1.221289961e-05,-9.330755194e-06,-5.342476383e-06,-3.887557403e-06,-9.553483237e-06,-1.020233486e-05,-2.049552795e-05,-2.142556527e-05,-6.936104612e-06,-8.450454109e-06,-3.383591268e-06,-1.198173294e-05,-7.017922018e-06,-5.047914743e-06,-1.729197018e-06,-4.067134731e-06,-2.666187913e-06,-9.353842039e-06
0.79,-1.222151888e-05,-1.606075915e-05,-2.050655656e-05,-2.129282360e-05,-1.210375355e-05,-1.867148036e-05,-6.010694877e-06,-1.577997073e-05,-1.087382023e-05,-9.252767705e-06,-8.500422524e-06,-2.155279108e-06,-5.700124628e-06,-3.817625584e-06,-6.385090671e-08,2.191251437e-06,-6.862280042e-06,-7.261429334e-06,-1.717903625e-05,-1.654190807e-05,-4.476348738e-06,-2.952024205e-06,4.996590277e-06,-6.230957454e-06,-5.463365760e-07,1.545687035e-06,4.591272803e-06,2.121473340e-06,-5.143549529e-06,-1.327193359e-05
0.795,-5.301243772e-06,-7.979909251e-06,-1.380278444e-05,-1.236239201e-05,-2.176757964e-06,-8.616910105e-06,-4.690899759e-06,-5.822397599e-06,-1.262232640e-06,4.326493768e-07,1.266748835e-06,3.177077977e-06,3.470696398e-06,4.645468816e-06,6.339475782e-06,8.952175925e-06,-2.218407087e-06,-2.539445880e-06,-9.584938234e-06,-7.439101905e-06,2.121101566e-06,4.968543233e-06,1.078434713e-05,2.796206506e-06,7.431044026e-06,9.229406899e-06,1.027154749e-05,8.617316382e-06,-1.031632134e-05,-1.043580741e-05
0.8,-2.092942086e-06,-4.134008242e-06,-8.800286709e-06,-6.237624865e-06,-9.588172763e-07,-1.102830178e-06,-6.929471817e-06,2.380796327e-06,4.809881638e-06,5.249048386e-06,7.205198184e-06,3.374916908e-06,8.093638355e-06,8.624769384e-06,8.116617900e-06,1.063254300e-05,-1.250926569e-06,-1.878200051e-06,-4.690027613e-06,-1.752906560e-06,4.315127784e-06,7.526851577e-06,7.674182547e-06,7.379206272e-06,9.099166985e-06,1.070400233e-05,9.204464397e-06,9.091633898e-06,4.042613339e-06,-7.990011522e-06
0.805,-4.962793207e-06,-7.510282883e-06,-8.891397355e-06,-6.781802486e-06,-7.314564544e-06,-4.616232730e-07,-9.399722508e-06,3.692914830e-06,3.646822021e-06,3.125000884e-06,6.007255396e-06,-1.525375240e-06,5.714062498e-06,5.756955467e-06,4.528183312e-06,6.243438577e-06,-5.365883025e-06,-6.297504767e-06,-5.490321065e-06,-2.771788257e-06,-8.795456811e-07,2.572508453e-06,-2.062485380e-06,4.640239291e-06,2.459930522e-06,5.011377546e-06,1.478482662e-06,3.298510863e-06,4.932709013e-06,-1.099526727e-05
0.81,-9.778438499e-06,-1.176964115e-05,-1.142527109e-05,-9.859451520e-06,-1.121235493e-05,-3.292897018e-06,-7.431369744e-06,8.317086990e-07,-6.790023099e-07,-5.816004523e-07,1.938892331e-06,-6.093848195e-06,1.256339002e-06,1.372622187e-06,9.158395974e-07,9.627950601e-07,-1.006439661e-05,-1.097742020e-05,-8.258428292e-06,-6.690929283e-06,-8.771626111e-06,-4.002500591e-06,-9.986528351e-06,-4.592935947e-07,-5.895760630e-06,-1.105069275e-06,-6.394883037e-06,-2.302681160e-06,4.500642120e-06,-6.020255706e-06
0.815,-9.886323205e-06,-8.567022933e-06,-1.084844046e-05,-8.274249924e-06,-5.290244432e-06,-2.682189099e-06,2.339237378e-07,6.902607690e-07,-1.116427674e-06,9.302581670e-07,1.937435812e-06,-4.760500126e-06,1.722509738e-06,2.640414454e-06,3.073326830e-06,1.032060995e-06,-9.772546223e-06,-1.040021491e-05,-7.203645511e-06,-7.295168004e-06,-1.292537980e-05,-4.537815954e-06,-9.961732765e-06,-6.393022155e-07,-7.538960579e-06,-2.693135839e-07,-7.978422686e-06,-1.201623845e-06,6.143018602e-07,-8.824013235e-07
0.82,-3.202798438e-06,2.306921337e-06,-5.177787756e-06,-3.782988151e-07,6.361372597e-06,3.702500253e-06,9.287971083e-06,6.234429368e-06,4.465088370e-06,7.964632774e-06,7.909502594e-06,2.080681953e-06,8.455573333e-06,1.048426037e-05,1.078440404e-05,7.181566250e-06,-3.995780958e-06,-4.192525459e-06,-1.255705630e-06,-2.835017803e-06,-1.140970526e-05,2.159339892e-06,-3.899614496e-06,5.663339702e-06,-1.178181693e-06,7.646606910e-06,-3.147065133e-06,6.278446099e-06,1.060383404e-05,2.183376720e-08
0.825,5.354901644e-06,1.207004465e-05,1.655163326e-06,7.770291145e-06,1.294122664e-05,1.100587278e-05,1.349082976e-05,1.331238724e-05,1.129872980e-05,1.378737482e-05,1.495368712e-05,8.264537086e-06,1.580081759e-05,1.858435377e-05,1.797949106e-05,1.392248161e-05,2.197628799e-06,2.708856875e-06,4.910370961e-06,2.667806952e-06,-6.703669473e-06,9.909107225e-06,1.224938353e-06,1.297002488e-05,6.467265502e-06,1.579385134e-05,2.827364157e-06,1.366880582e-05,1.738446959e-05,-2.438741575e-06
0.83,9.106034032e-06,1.265880727e-05,4.441307628e-06,9.444599812e-06,9.665563046e-06,1.316081369e-05,1.095976925e-05,1.594498874e-05,1.381975699e-05,1.261459462e-05,1.743974455e-05,8.734051496e-06,1.783191744e-05,2.070822809e-05,1.958646107e-05,1.576288504e-05,3.944892940e-06,5.606309274e-06,6.656017780e-06,4.835221186e-06,-1.213999179e-06,1.249229277e-05,1.558337271e-06,1.552066600e-05,8.802083871e-06,1.836310995e-05,5.952534741e-06,1.586803994e-05,1.226650163e-05,1.850291259e-06
0.835,6.877565388e-06,5.758479767e-06,2.939417965e-06,5.276670420e-06,3.102281717e-06,1.033579020e-05,6.247978108e-06,1.365040613e-05,1.243151545e-05,6.894729020e-06,1.566666157e-05,5.430851490e-06,1.529198880e-05,1.779997850e-05,1.723302091e-05,1.339922938e-05,2.000707884e-06,4.988738828e-06,4.976989148e-06,4.365182301e-06,5.030329901e-06,1.060328326e-05,5.022004548e-07,1.393663875e-05,6.811373499e-06,1.690457957e-05,7.903340372e-06,1.475625830e-05,4.373777323e-06,1.523770546e-06
0.84,4.189764339e-06,7.954523148e-07,2.370193943e-06,2.798869554e-06,2.926504869e-06,8.959798020e-06,5.576297140e-06,1.206403345e-05,1.286143816e-05,4.955843210e-06,1.525685914e-05,5.166735199e-06,1.454432633e-05,1.654903347e-05,1.713126149e-05,1.275100485e-05,1.681504744e-06,5.473769663e-06,5.357543141e-06,6.062640117e-06,1.231365153e-05,1.048267824e-05,4.231941836e-06,1.396535119e-05,7.225236017e-06,1.771969393e-05,1.306319804e-05,1.640928249e-05,-2.910213497e-06,1.682920309e-06
0.845,6.988064662e-06,4.494598501e-06,7.479359463e-06,7.981217033e-06,1.058207193e-05,1.424642675e-05,1.034087280e-05,1.617282059e-05,1.900486878e-05,1.133751760e-05,2.015902731e-05,1.163034291e-05,1.975821695e-05,2.126322001e-05,2.258272042e-05,1.787532727e-05,6.691021218e-06,1.025235098e-05,1.141021988e-05,1.283856045e-05,1.888129089e-05,1.618536196e-05,1.385743685e-05,1.915118659e-05,1.399497755e-05,2.378537697e-05,2.208787222e-05,2.330167025e-05,6.173008490e-06,-6.220083177e-06
0.85,1.483721932e-05,1.391349001e-05,1.687603828e-05,1.843986348e-05,1.841525246e-05,2.389153424e-05,1.594156947e-05,2.411878487e-05,2.779481222e-05,2.098506419e-05,2.756977129e-05,2.061427548e-05,2.750946599e-05,2.860942987e-05,2.976897108e-05,2.582789939e-05,1.478351172e-05,1.734830114e-05,2.064858769e-05,2.178396951e-05,2.205415121e-05,2.460312544e-05,2.321027887e-05,2.630998266e-05,2.329074204e-05,3.086539289e-05,2.987891725e-05,3.067726323e-05,2.824138561e-06,-6.319117510e-06
0.855,2.094066667e-05,2.003668249e-05,2.388858380e-05,2.572073962e-05,1.908681534e-05,3.001956825e-05,1.671952450e-05,2.864473464e-05,3.195129277e-05,2.417390848e-05,3.055080444e-05,2.391579759e-05,3.004121165e-05,3.110634304e-05,3.154805514e-05,2.925901162e-05,1.979544830e-05,2.152953239e-05,2.676403425e-05,2.661616299e-05,2.107043055e-05,2.863854511e-05,2.475871102e-05,2.886140437e-05,2.747144706e-05,3.205110658e-05,3.038343390e-05,3.125080178e-05,6.380946311e-06,2.566471428e-06
0.86,1.877145094e-05,1.688612634e-05,2.281558767e-05,2.362200263e-05,1.274140956e-05,2.690233538e-05,1.112252177e-05,2.438219854e-05,2.721051012e-05,1.663619382e-05,2.512025208e-05,1.753053888e-05,2.336701935e-05,2.502104860e-05,2.480419117e-05,2.379810092e-05,1.749980505e-05,1.938144736e-05,2.535370434e-05,2.346361225e-05,1.753940554e-05,2.443096173e-05,1.709856301e-05,2.369328825e-05,2.288338307e-05,2.506106838e-05,2.264859035e-05,2.282445502e-05,9.291618250e-06,-2.220349223e-06
0.865,8.258890925e-06,6.214266886e-06,1.392382823e-05,1.343704775e-05,4.079000508e-06,1.599275803e-05,2.051099299e-06,1.296990672e-05,1.604707320e-05,3.644704448e-06,1.397117737e-05,5.321950989e-06,1.121700165e-05,1.382897142e-05,1.333426047e-05,1.228144890e-05,9.188533981e-06,1.218834969e-05,1.709441784e-05,1.389292125e-05,1.318770846e-05,1.464129787e-05,6.116040067e-06,1.379639774e-05,1.277329657e-05,1.415039546e-05,1.156701441e-05,1.051757039e-05,-4.665410922e-07,-2.435694792e-06
0.87,-4.431562605e-06,-5.593636644e-06,2.618450396e-06,1.528468251e-06,-4.453683188e-06,3.708788593e-06,-6.376422788e-06,1.090681470e-06,4.672217999e-06,-5.845617478e-06,3.480411858e-06,-5.043262909e-06,1.082963779e-06,4.224020656e-06,3.841214103e-06,1.864630713e-06,5.462632040e-08,4.338802575e-06,6.238370597e-06,2.943945576e-06,8.498564392e-06,5.166867257e-06,-7.924808563e-07,4.673403900e-06,3.251339638e-06,5.469058681e-06,3.208593303e-06,1.812002486e-06,6.883754698e-06,-9.485542573e-07
0.875,-1.254388036e-05,-1.328311613e-05,-5.454058710e-06,-6.783924781e-06,-1.314300867e-05,-4.520486878e-06,-1.117212130e-05,-5.637727203e-06,-2.471431355e-06,-7.782609114e-06,-1.938734480e-06,-8.753520141e-06,-2.630402660e-06,-3.311362441e-08,5.206605387e-08,-2.275241648e-06,-5.209214454e-06,-3.790549573e-07,-2.807431788e-06,-4.867586762e-06,4.030639042e-06,-1.380941461e-07,-9.251342658e-07,-5.159622203e-07,-2.073880046e-06,1.845698854e-06,2.431047488e-07,2.384013953e-07,-3.208664980e-06,-3.038985033e-06
0.88,-1.395164325e-05,-1.536631756e-05,-8.348488598e-06,-1.049139766e-05,-1.978506051e-05,-7.687587595e-06,-1.065918231e-05,-6.536930894e-06,-5.106249466e-06,-5.208795707e-06,-2.403727736e-06,-6.453048258e-06,-1.252866045e-06,-4.541616605e-08,8.120324755e-07,-3.193441137e-07,-5.471478145e-06,-1.097607513e-06,-7.677398052e-06,-7.921201670e-06,1.566202207e-06,-1.409641372e-06,2.890337175e-06,-2.153369695e-06,-3.391111221e-06,2.076994493e-06,1.514829279e-06,3.766613092e-06,4.604306531e-06,1.716852855e-07
0.885,-1.168239376e-05,-1.335987288e-05,-8.064813145e-06,-1.161904255e-05,-1.883813782e-05,-8.149801216e-06,-4.948183503e-06,-4.799171164e-06,-5.574331102e-06,-3.280323579e-06,-9.044472953e-07,-1.821980990e-06,1.043592299e-06,9.360250065e-07,2.598354775e-06,3.838773113e-06,-3.174551801e-06,2.826128612e-07,-8.632977508e-06,-7.545809442e-06,2.130849128e-06,-1.049012202e-06,6.093694261e-06,-2.200663436e-06,-2.578166499e-06,3.572084278e-06,4.419875928e-06,7.939462311e-06,2.330289018e-06,-5.742769300e-06
0.89,-1.048122696e-05,-1.051847771e-05,-8.212086597e-06,-1.261094048e-05,-8.850445593e-06,-8.879521108e-06,2.432420640e-06,-4.009241880e-06,-6.463715325e-06,-4.004629171e-06,-5.058527961e-07,1.793263049e-06,1.272847799e-06,5.573810620e-07,2.604997197e-06,6.271797897e-06,-2.300147572e-06,5.941074064e-07,-8.333789404e-06,-6.956523519e-06,3.038544275e-06,-1.547517242e-06,5.911343572e-06,-2.579129942e-06,-1.587713928e-06,4.215958999e-06,6.543403004e-06,9.404410683e-06,6.322550493e-06,-3.954271063e-06
0.895,-1.303575326e-05,-1.077903146e-05,-1.142487702e-05,-1.511251458e-05,1.564051990e-06,-1.177661453e-05,4.981223450e-06,-5.816228057e-06,-9.468807860e-06,-6.050626600e-06,-2.900122033e-06,2.603320179e-06,-1.081605484e-06,-2.025817949e-06,-2.297807739e-07,5.226696558e-06,-5.812815851e-06,-2.817458214e-06,-1.042052149e-05,-9.519036393e-06,-1.027244133e-06,-4.615572563e-06,1.851947737e-06,-4.972179439e-06,-2.426066447e-06,2.351214432e-06,5.796227735e-06,7.026506260e-06,-5.877919122e-06,-3.779488007e-06
0.9,-1.850455514e-05,-1.645922835e-05,-1.773371117e-05,-1.962088016e-05,-3.013595179e-09,-1.700730606e-05,-1.862479925e-06,-9.675069591e-06,-1.476247776e-05,-7.884763828e-06,-7.976045797e-06,2.361771307e-07,-5.034688025e-06,-6.639474332e-06,-5.407162236e-06,1.305315688e-06,-1.360551117e-05,-1.035991028e-05,-1.652270491e-05,-1.627697304e-05,-1.239339420e-05,-1.057624518e-05,-5.226687660e-06,-1.020163976e-05,-6.513798151e-06,-2.853242253e-06,9.983143026e-07,1.526716802e-06,8.276234322e-07,-6.393341820e-06
0.905,-2.359741474e-05,-2.547384717e-05,-2.433458960e-05,-2.485207894e-05,-1.579212359e-05,-2.263986369e-05,-1.521076330e-05,-1.365816706e-05,-2.030249969e-05,-9.381425421e-06,-1.362079920e-05,-4.066631429e-06,-8.944647535e-06,-1.182702046e-05,-1.086303372e-05,-3.193259876e-06,-2.207204446e-05,-1.926818371e-05,-2.383734133e-05,-2.425892135e-05,-2.636350060e-05,-1.741511234e-05,-1.322385159e-05,-1.665857929e-05,-1.271202496e-05,-9.827091353e-06,-6.551806797e-06,-4.756846410e-06,1.800926490e-05,-8.969247381e-06
0.91,-2.504297889e-05,-3.175906867e-05,-2.724238098e-05,-2.782659704e-05,-3.300709940e-05,-2.540379301e-05,-2.560596853e-05,-1.573182586e-05,-2.254295046e-05,-1.070696640e-05,-1.658668363e-05,-7.536535736e-06,-1.087012886e-05,-1.479388120e-05,-1.349795724e-05,-5.415991581e-06,-2.625300225e-05,-2.482630876e-05,-2.666658358e-05,-2.805871738e-05,-3.437113595e-05,-2.118581086e-05,-1.869165830e-05,-2.035633608e-05,-1.689803427e-05,-1.447429336e-05,-1.287780514e-05,-8.529226247e-06,9.158117853e-06,-9.564505193e-06
0.915,-2.188569619e-05,-3.028775044e-05,-2.436147518e-05,-2.607486450e-05,-3.611539766e-05,-2.329634787e-05,-2.523365448e-05,-1.531257699e-05,-1.945564155e-05,-1.135336224e-05,-1.505603944e-05,-7.707264115e-06,-9.677106247e-06,-1.336334153e-05,-1.137018176e-05,-3.859443368e-06,-2.359619955e-05,-2.371867953e-05,-2.178619152e-05,-2.450539163e-05,-3.177256631e-05,-1.900516731e-05,-1.848844458e-05,-1.829622619e-05,-1.532104544e-05,-1.346833091e-05,-1.417278380e-05,-7.669600889e-06,5.392625040e-06,-7.357331753e-06
0.92,-1.603462521e-05,-2.207807501e-05,-1.753108340e-05,-2.037996894e-05,-2.353757488e-05,-1.794698559e-05,-1.534812304e-05,-1.393225800e-05,-1.322224692e-05,-1.105523882e-05,-1.078985792e-05,-4.841789420e-06,-6.486754867e-06,-8.623402119e-06,-5.993111414e-06,7.150692183e-08,-1.611560674e-05,-1.687554919e-05,-1.237822299e-05,-1.609096115e-05,-2.182203791e-05,-1.222113563e-05,-1.259813106e-05,-1.210228274e-05,-8.850802167e-06,-8.055895804e-06,-1.029805145e-05,-3.385685612e-06,1.231916271e-05,-2.459504826e-06
0.925,-1.038485266e-05,-1.316508522e-05,-1.102041885e-05,-1.446911514e-05,-9.071646311e-06,-1.340688387e-05,-4.461404417e-06,-1.356916770e-05,-8.718528589e-06,-1.059097882e-05,-7.728976211e-06,-1.800776586e-06,-4.130912491e-06,-4.568830822e-06,-1.541181343e-06,2.969049416e-06,-8.443698902e-06,-8.745997811e-06,-5.478375290e-06,-8.909800765e-06,-1.150516874e-05,-5.698793283e-06,-4.804418935e-06,-7.013121331e-06,-2.719690284e-06,-3.326217335e-06,-4.761625688e-06,5.592775327e-07,7.734288158e-06,-4.286041689e-06
0.93,-5.944280045e-06,-7.993209598e-06,-7.316917615e-06,-1.103370401e-05,-5.665087781e-06,-1.162425377e-05,9.592366162e-07,-1.363108561e-05,-8.252992800e-06,-1.035226627e-05,-7.535801226e-06,-6.985252109e-07,-4.053507361e-06,-3.926863916e-06,-7.026600076e-07,2.820163250e-06,-3.344641766e-06,-3.222721686e-06,-4.771520670e-06,-6.525953975e-06,-4.339728060e-06,-2.993261178e-06,4.708083747e-07,-6.220547168e-06,-1.015393286e-06,-2.684950293e-06,-7.423347562e-07,1.709972906e-06,5.882362753e-06,-2.088338882e-06
0.935,-9.134921631e-07,-4.732438656e-06,-4.597340666e-06,-8.440702767e-06,-1.041721170e-05,-9.631425139e-06,2.684185786e-06,-1.025739448e-05,-8.339301314e-06,-8.471702830e-06,-7.025563842e-06,-1.228081847e-07,-3.975953113e-06,-4.616395953e-06,-1.487808699e-06,1.506479585e-06,5.946089928e-07,-2.450070435e-07,-6.553071913e-06,-6.308922212e-06,1.569941724e-06,-2.480266312e-06,2.237070106e-06,-6.832046739e-06,-1.934386774e-06,-3.665163985e-06,2.274516472e-06,1.817822563e-06,7.110024452e-06,3.863131701e-06
0.94,6.818992856e-06,1.705834215e-06,8.418744772e-07,-2.645094955e-06,-8.695412389e-06,-2.642673627e-06,6.849276050e-06,-1.240997638e-07,-3.147585501e-06,-2.099289944e-06,-1.364288741e-06,3.197384378e-06,6.277373863e-08,-1.679215622e-06,7.769859232e-07,3.040271953e-06,6.375147488e-06,3.232562356e-06,-3.919758404e-06,-2.682741113e-06,8.780302764e-06,7.254171938e-07,3.320549849e-06,-2.890855486e-06,2.185764487e-07,-5.993587441e-07,7.052715184e-06,4.932242197e-06,1.215691503e-05,5.417706257e-06
0.945,1.606091415e-05,1.235378678e-05,9.424629159e-06,7.185210429e-06,7.403042110e-06,9.535259162e-06,1.514079435e-05,1.440992328e-05,8.291948919e-06,8.410471253e-06,9.685893655e-06,9.685493397e-06,8.614939396e-06,6.629684032e-06,7.766379761e-06,8.739127570e-06,1.389678028e-05,8.880463350e-06,4.984726509e-06,5.969385612e-06,1.570482833e-05,8.670687188e-06,6.447572281e-06,7.208647672e-06,7.992093449e-06,8.237822297e-06,1.398072026e-05,1.221874346e-05,2.128068690e-05,-2.039604688e-06
0.95,2.178863532e-05,2.144734790e-05,1.633743504e-05,1.595643631e-05,2.808953460e-05,2.023792410e-05,2.190158497e-05,2.497131641e-05,1.929484381e-05,1.741183205e-05,1.964699003e-05,1.488432874e-05,1.648235283e-05,1.548523124e-05,1.512082921e-05,1.462415760e-05,1.869587280e-05,1.412432277e-05,1.393690294e-05,1.449932148e-05,1.783044230e-05,1.713438823e-05,1.053770774e-05,1.740893473e-05,1.675542049e-05,1.727973072e-05,1.908569149e-05,1.938447378e-05,2.132903261e-05,2.671897297e-06
0.955,1.913333521e-05,2.188211158e-05,1.567262513e-05,1.685238352e-05,3.534583095e-05,2.147641787e-05,2.045981213e-05,2.367424017e-05,2.116351340e-05,1.777050286e-05,2.068231979e-05,1.323206092e-05,1.675004610e-05,1.742491388e-05,1.606530945e-05,1.457212518e-05,1.603076520e-05,1.420544910e-05,1.461834614e-05,1.574422560e-05,1.312270526e-05,1.917118206e-05,1.166266831e-05,1.924847320e-05,1.873263391e-05,1.859661676e-05,1.761737066e-05,2.023109599e-05,3.577619647e-06,4.877598701e-07
0.96,8.411350919e-06,1.282852160e-05,6.718628653e-06,8.533053673e-06,2.196869882e-05,1.203830630e-05,1.080734753e-05,1.080335366e-05,1.187499596e-05,7.682268111e-06,1.137146307e-05,3.977920442e-06,7.670800646e-06,9.885073505e-06,8.232159849e-06,6.444488937e-06,6.164717584e-06,7.224025104e-06,5.404266849e-06,7.951255095e-06,4.838226859e-06,1.216084795e-05,7.677644870e-06,1.045709611e-05,1.103401210e-05,1.012822019e-05,9.440132367e-06,1.295948367e-05,1.344021811e-05,-5.736792340e-07
0.965,-4.199557463e-06,8.621650223e-07,-4.467261732e-06,-2.750638750e-06,-1.142466421e-06,-5.757820674e-07,-6.119705832e-07,-4.362914932e-06,-1.479001192e-06,-6.681817201e-06,-1.323756021e-06,-7.318236822e-06,-4.761461989e-06,-1.573535864e-06,-3.214069842e-06,-4.933164176e-06,-4.951460417e-06,-3.090607506e-06,-6.640434713e-06,-3.216511173e-06,-1.488629057e-06,9.378794916e-07,1.252640685e-06,-2.328099472e-06,-8.994916700e-07,-1.660544238e-06,1.114748876e-07,2.758620515e-06,1.188045669e-05,-5.378844168e-06
0.97,-1.094172035e-05,-5.990951307e-06,-1.005114761e-05,-8.418845873e-06,-1.618427599e-05,-6.850163909e-06,-7.549893772e-06,-1.113617333e-05,-9.016835317e-06,-1.572671081e-05,-8.240344026e-06,-1.340932779e-05,-1.185800207e-05,-8.377909334e-06,-1.029556498e-05,-1.182735326e-05,-1.043530558e-05,-1.005287983e-05,-1.218620225e-05,-9.603901411e-06,-2.777738997e-06,-6.434970547e-06,-2.438324282e-06,-9.670445833e-06,-8.207735574e-06,-7.779957878e-06,-3.890352326e-06,-2.809335325e-06,-1.015373242e-06,-7.139204796e-06
0.975,-8.918316705e-06,-5.105630943e-06,-7.278291425e-06,-5.617560347e-06,-1.515993442e-05,-3.499860275e-06,-9.756856108e-06,-6.202986065e-06,-6.828186153e-06,-1.418120000e-05,-5.764862604e-06,-1.137090997e-05,-9.271230473e-06,-6.080338703e-06,-8.213352473e-06,-9.439901040e-06,-8.120624039e-06,-9.319823165e-06,-8.363130919e-06,-8.095109612e-06,-8.578989655e-08,-5.428434845e-06,-5.111724440e-07,-7.512827704e-06,-6.165715287e-06,-4.506915486e-06,-5.288718761e-07,3.031691171e-07,6.059729623e-06,2.616007976e-06
0.98,-1.108725152e-06,5.052814471e-07,2.924600087e-08,1.534103975e-06,-4.111941436e-06,4.545531260e-06,-1.002383073e-05,4.536726340e-06,9.524691550e-07,-4.421228058e-06,1.944822866e-06,-4.111304753e-06,-4.637616942e-07,1.792531246e-06,-9.978317482e-09,-4.835263868e-07,-1.479494209e-06,-2.484020395e-06,2.263112680e-07,-1.697052551e-06,3.960353213e-06,1.470728644e-06,4.739592432e-06,2.449229084e-07,2.157666147e-06,3.884413703e-06,6.446912219e-06,8.612447417e-06,8.495967087e-06,-5.052605094e-06
0.985,5.402458720e-06,5.485761174e-06,5.389634536e-06,5.751737214e-06,5.325629348e-06,1.016952758e-05,-1.082845664e-05,1.236867601e-05,6.929664067e-06,6.164379872e-06,8.236898838e-06,2.944902164e-06,8.116405967e-06,9.263053986e-06,9.216762191e-06,9.465297867e-06,3.879175976e-06,5.156743151e-06,5.822474233e-06,3.038355112e-06,6.975732682e-06,8.406881723e-06,8.880887808e-06,6.896522416e-06,1.019573308e-05,1.068083107e-05,1.182754692e-05,1.644636424e-05,1.332457650e-06,-6.575029190e-06
0.99,6.869009860e-06,7.078278468e-06,5.821840781e-06,4.792540218e-06,7.596867080e-06,9.928654541e-06,-1.018886727e-05,1.280767595e-05,7.532264566e-06,1.124392917e-05,9.217119756e-06,6.094685610e-06,1.107169744e-05,1.126521926e-05,1.314301087e-05,1.376573588e-05,5.054572845e-06,8.352590876e-06,5.745655424e-06,3.584413827e-06,7.768090328e-06,1.040439723e-05,8.712454867e-06,8.361902632e-06,1.247639764e-05,1.154305629e-05,1.223044604e-05,1.787259587e-05,-2.654334746e-06,-8.691823145e-07
0.995,1.797112087e-06,3.763951986e-06,2.383609329e-06,-2.127500631e-07,3.626740376e-06,6.087553102e-06,-8.955495442e-06,7.770083691e-06,3.639008955e-06,8.261316264e-06,6.266474527e-06,4.623787663e-06,9.294975948e-06,9.808195515e-06,1.374158273e-05,1.329492164e-05,2.581495348e-06,6.733239460e-06,8.081099575e-07,-5.698645875e-07,4.748459097e-06,7.839274970e-06,5.890696333e-06,5.804325832e-06,9.431548724e-06,8.265730367e-06,8.600899834e-06,1.491129508e-05,-6.021315998e-06,2.255365546e-06
1,-1.850405852e-06,-5.072689176e-07,-2.697434374e-07,-1.871717758e-06,-3.862350404e-07,1.381794996e-06,-3.822099730e-06,1.383252090e-06,-6.077843921e-08,9.650496255e-07,1.515395929e-06,6.747718476e-07,3.003315170e-06,3.747950486e-06,6.075476121e-06,5.150841773e-06,2.286001545e-08,1.864927798e-06,-1.629910792e-06,-2.204495889e-06,1.029621671e-07,2.164674917e-06,1.784215453e-06,1.401985071e-06,2.566714193e-06,2.360224815e-06,2.126178416e-06,5.374909883e-06,4.722334466e-07,1.912481425e-06
