Time,FP1,AFF5,AFz,F1,FC5,FC1,T7,C3,Cz,CP5,CP1,P7,P3,Pz,POz,O1,FP2,AFF6,F2,FC2,FC6,C4,T8,CP2,CP6,P4,P8,O2,HEOG,VEOG,
-0.1,4.608787456e-06,3.738528715e-06,4.003173077e-06,2.977513172e-06,2.135276861e-06,1.746376017e-06,7.011879778e-07,5.383060135e-07,1.618104347e-06,-5.504083501e-08,2.729188025e-07,-6.595149248e-07,-5.146878482e-07,-1.101759543e-07,-5.758089426e-07,-6.559496940e-07,5.146766845e-06,2.564449959e-06,2.995761917e-06,1.664879518e-06,7.415112592e-07,4.033228507e-07,4.196579337e-07,2.061241763e-07,-6.747933277e-08,1.428080014e-07,-4.926692071e-07,-1.968329061e-07,3.721418068e-06,-1.807906218e-06
-0.095,5.944568539e-06,4.408732343e-06,4.532017328e-06,3.444386124e-06,2.299492570e-06,1.564460679e-06,-1.956702766e-06,3.126091235e-07,1.288252348e-06,-2.329066326e-07,8.272279390e-08,2.806957760e-07,-5.214765692e-07,-5.824599450e-07,-1.209536323e-06,-3.742110591e-08,6.880699840e-06,2.227347708e-06,3.528417473e-06,1.333433060e-06,-1.819398090e-07,-1.029533200e-06,-8.969876362e-07,-6.851297582e-07,-1.736784062e-06,-1.209111170e-06,-2.366843626e-06,-1.026437074e-06,6.210117605e-06,-4.497592788e-05
-0.09,2.863759389e-06,9.718481248e-07,1.012797067e-06,4.033644429e-07,-2.375774785e-07,-1.004152853e-06,-5.241185769e-06,-1.216128092e-06,-8.232363093e-07,-7.416579521e-07,-7.356412607e-08,1.255860030e-06,-1.384911648e-07,-6.306842027e-07,-9.254067849e-07,1.317077403e-06,2.382788660e-06,-1.096619563e-06,1.512847529e-07,-6.652546171e-07,-1.576447219e-06,-2.495658570e-06,-2.313513821e-06,-1.457415200e-06,-2.783074793e-06,-2.097961256e-06,-3.080497712e-06,-1.241219258e-06,1.368277335e-07,-1.176029224e-05
-0.085,2.771502192e-06,-4.894768388e-07,5.253775800e-07,-1.078917717e-06,-1.238790731e-06,-2.756977342e-06,-3.158866975e-06,-2.457667653e-06,-1.668876788e-06,-1.230462467e-06,-1.321887898e-07,2.498090743e-07,-1.998677395e-07,-4.863058310e-07,-4.164036123e-07,1.522342169e-06,1.041224283e-07,-2.668963881e-06,-2.117881652e-06,-1.666900550e-06,-2.170182897e-06,-2.912640147e-06,-2.432285148e-06,-1.675350736e-06,-2.644075356e-06,-1.802200912e-06,-2.778394644e-06,-9.044925335e-07,-4.708321624e-06,5.045637868e-05
-0.08,1.876788331e-06,-2.130619692e-06,1.100272239e-07,-2.346601780e-06,-1.671575306e-06,-4.121776668e-06,2.333042831e-06,-2.686604573e-06,-2.343272021e-06,-8.250845061e-07,-5.786934840e-07,-8.799079319e-07,3.830778303e-08,-6.766144474e-07,9.581493018e-08,1.196943385e-06,-1.961173410e-06,-3.769517334e-06,-4.188955563e-06,-2.840313071e-06,-2.830590437e-06,-3.168426240e-06,-2.290684329e-06,-2.026625349e-06,-2.145229738e-06,-1.478644160e-06,-2.115745173e-06,-3.862092641e-07,-4.215084778e-06,3.291486861e-06
-0.075,6.680974758e-07,-2.493249960e-06,2.485020814e-07,-2.134973446e-06,-1.119724109e-06,-3.998344651e-06,6.017291892e-06,-1.356602139e-06,-2.079765900e-06,7.404793922e-07,-7.850868936e-07,-9.020791376e-07,7.177299004e-07,-1.134295314e-06,1.503812882e-07,6.469834825e-07,-1.862542888e-06,-3.328826909e-06,-4.263979336e-06,-3.079720722e-06,-2.798998841e-06,-2.946645047e-06,-2.471362268e-06,-2.140860971e-06,-1.632372168e-06,-1.408017354e-06,-1.498668550e-06,1.214917036e-07,8.558034888e-06,-5.582537522e-05
-0.07,-1.247636660e-06,-2.044033462e-06,-1.113019915e-07,-1.115254183e-06,-5.241003201e-07,-2.820689036e-06,3.649063912e-06,6.616399059e-07,-7.561077075e-07,2.631224853e-06,-1.699235960e-09,3.344467458e-07,1.734725686e-06,-1.018525298e-06,1.369239306e-07,3.537189296e-07,-1.190244624e-06,-2.025392126e-06,-2.818290081e-06,-2.074535239e-06,-1.617730814e-06,-1.800713075e-06,-3.112966942e-06,-1.284551939e-06,-9.875169394e-07,-1.163958643e-06,-6.993876909e-07,6.486570186e-07,-2.314145650e-06,-8.527517640e-06
-0.065,-1.579793417e-06,-2.834047461e-07,-7.001831801e-08,6.705346398e-07,3.589896608e-08,-9.310669045e-07,-2.671512439e-06,2.179891122e-06,1.874454619e-06,3.515451608e-06,1.902923780e-06,1.286148857e-06,2.408251887e-06,3.883901109e-07,5.036860297e-07,6.558878467e-08,-8.361698249e-08,5.364310993e-08,-1.823379421e-07,4.039936579e-07,7.106907278e-07,6.169677739e-07,-3.021057717e-06,9.516454864e-07,2.123776303e-07,1.457228183e-08,4.124605201e-07,1.086431807e-06,-5.432190238e-06,4.776739252e-05
-0.06,-7.750448722e-08,1.717954754e-06,1.008185411e-07,2.208121172e-06,1.675648763e-07,7.421720936e-07,-7.256448907e-06,2.442246011e-06,4.522289323e-06,2.896732852e-06,3.844505647e-06,1.017030604e-06,2.373356949e-06,2.630490917e-06,1.279095050e-06,-3.582169318e-07,5.996839283e-07,1.940034594e-06,2.153950893e-06,3.121808058e-06,2.922676143e-06,3.428400189e-06,-1.188242833e-06,3.614871760e-06,1.820665036e-06,1.900478033e-06,1.422007668e-06,1.098701393e-06,4.048842191e-07,1.112540604e-05
-0.055,1.949178877e-06,2.906848517e-06,1.936185269e-07,2.902470110e-06,-1.293079653e-08,1.707830293e-06,-6.322269231e-06,1.796918134e-06,5.530071395e-06,1.600307088e-06,4.464075165e-06,1.134303439e-08,1.748426042e-06,4.188891775e-06,1.782404472e-06,-8.512746291e-07,1.131404713e-06,3.031105640e-06,3.336412352e-06,4.700387903e-06,3.793174809e-06,5.166402365e-06,2.034799090e-06,5.074478537e-06,3.070232221e-06,3.389011993e-06,1.711723149e-06,5.110563176e-07,7.405140302e-06,-4.886304463e-05
-0.05,2.059468837e-06,2.356594342e-06,-2.137027222e-07,2.354668600e-06,-2.951497471e-07,1.708246097e-06,-1.612091399e-06,1.058083666e-06,3.995635298e-06,8.596615969e-07,3.309566555e-06,-4.187399623e-07,1.038851804e-06,3.854454829e-06,1.445432868e-06,-1.064214030e-06,1.439642059e-06,2.900482230e-06,3.075794284e-06,4.344421420e-06,3.082656959e-06,4.858236393e-06,4.771239701e-06,4.416456911e-06,3.190220859e-06,3.467731609e-06,1.308241149e-06,-2.809305726e-07,3.386734127e-06,-5.391253413e-06
-0.045,-3.679991836e-07,4.460509454e-07,-8.881950120e-07,8.882852076e-07,-3.377773921e-07,9.280942560e-07,2.148267972e-06,6.966360974e-07,8.826338900e-07,9.761460601e-07,1.256551474e-06,1.566625021e-07,5.978722057e-07,1.959540421e-06,4.905325893e-07,-8.399460753e-07,1.336534363e-06,1.809469369e-06,1.953923179e-06,2.542616600e-06,1.731504050e-06,2.960448174e-06,5.299119180e-06,2.355299670e-06,2.261437336e-06,2.261610108e-06,1.010159343e-06,-5.199700622e-07,-9.328732371e-06,5.342487675e-05
-0.04,-3.589097972e-06,-1.482203266e-06,-1.452200837e-06,-7.431858574e-07,-1.150161029e-07,-1.353020343e-07,2.235434852e-06,5.436411038e-07,-1.787141652e-06,1.110899100e-06,-3.762612287e-07,8.808454202e-07,4.256941339e-07,7.274066661e-08,-2.526048536e-07,-3.551824512e-07,5.106023709e-07,4.153018483e-07,7.799077106e-07,4.818348767e-07,7.660624452e-07,8.828256882e-07,3.528582280e-06,4.912357876e-07,1.203752868e-06,8.298671000e-07,1.497416228e-06,1.781649537e-07,-3.533574903e-06,7.067056228e-06
-0.035,-5.134852829e-06,-2.113464953e-06,-1.779021248e-06,-1.715734478e-06,8.790363174e-08,-7.662610336e-07,2.129314366e-07,2.900419157e-07,-2.603643048e-06,4.157102199e-07,-9.785709460e-07,7.268321363e-07,3.142590481e-07,-5.606818451e-07,-2.816823023e-07,6.485883522e-08,-9.004172341e-07,-6.055868478e-07,9.331112757e-08,-8.409711648e-07,3.587720134e-07,-2.552174447e-07,8.541803654e-07,-2.104368349e-07,8.762325171e-07,9.693966946e-08,2.444434328e-06,1.361505284e-06,5.590944102e-06,-5.053629962e-05
-0.03,-4.132928034e-06,-1.249436408e-06,-1.930800286e-06,-1.623265110e-06,7.470279251e-08,-3.918778829e-07,-4.058666944e-07,8.248597855e-10,-1.790163600e-06,-8.683291500e-07,-9.419622540e-07,-2.434821482e-07,1.035766461e-07,-1.477457241e-07,6.608475704e-08,2.613388900e-07,-2.246664425e-06,-9.442475332e-07,-8.155070405e-08,-1.174113936e-06,-3.262780832e-08,-4.279365716e-07,-1.280601378e-06,-1.398955733e-07,1.193377334e-06,8.138740901e-08,2.781203142e-06,2.104216173e-06,1.165402799e-06,-1.022211660e-05
-0.025,-1.840988253e-06,8.271530273e-08,-1.785825162e-06,-7.496215202e-07,6.608839043e-08,9.484925018e-07,1.948246089e-06,-1.434508065e-08,-6.530995498e-07,-1.681729255e-06,-9.721027586e-07,-9.919999670e-07,-2.419454479e-07,1.351069532e-07,1.446871136e-07,3.204241164e-07,-2.857117119e-06,-7.090556172e-07,-7.618152116e-08,-9.007811295e-07,-7.248444494e-07,-3.370294472e-07,-2.303636812e-06,-2.954318218e-07,1.271349444e-06,1.766698665e-07,1.902216230e-06,1.841378875e-06,-6.804026098e-06,4.849137413e-05
-0.02,-1.614773120e-07,6.051555704e-07,-1.127923037e-06,9.407892411e-08,4.074593691e-07,2.456166003e-06,5.420719223e-06,2.464526306e-07,-2.348765842e-07,-1.469532337e-06,-1.338426237e-06,-7.671953743e-07,-7.218536450e-07,-4.385799181e-07,-1.461688524e-07,3.705597057e-07,-2.579579532e-06,-1.922039104e-07,-2.156075644e-07,-5.825464118e-07,-1.278019971e-06,-4.660900124e-07,-2.140172924e-06,-1.049925964e-06,4.866057026e-07,-2.906230043e-08,4.095502659e-07,7.996952339e-07,-2.698648750e-06,9.096844193e-06
-0.015,3.520714228e-08,-8.513938878e-08,-1.955719520e-07,1.308990512e-07,9.262061885e-07,3.057188127e-06,6.586448587e-06,2.874781277e-07,-6.012848120e-07,-9.603061059e-07,-1.852383673e-06,6.623430604e-09,-1.383221676e-06,-1.471881678e-06,-3.468301228e-07,3.369401185e-07,-1.841161138e-06,3.306817283e-07,-5.681259849e-07,-6.000680456e-07,-1.037071631e-06,-6.736685047e-07,-6.589001745e-07,-1.837328699e-06,-7.464773975e-07,-4.156956272e-07,-5.382527739e-07,-3.768864305e-07,9.253087664e-06,-4.832504448e-05
-0.01,-8.440473728e-07,-1.317544033e-06,2.176404198e-07,-8.123676861e-07,8.373510212e-07,2.226619242e-06,3.462000823e-06,-3.967152578e-07,-1.262300458e-06,-1.428390806e-06,-2.380598570e-06,2.003144790e-07,-2.316161172e-06,-2.193829317e-06,-3.182508022e-07,-9.045349657e-08,-1.280067981e-06,5.677917601e-07,-1.005153577e-06,-1.060938535e-06,-1.075604616e-07,-6.745125673e-07,1.855729493e-06,-1.993374678e-06,-1.420326679e-06,-7.577096636e-07,-5.469509442e-07,-1.325695374e-06,3.755679100e-07,-7.184944554e-06
-0.005,-2.080790644e-06,-2.192027821e-06,-4.327222179e-07,-2.208437907e-06,-4.481004670e-07,4.201421312e-07,-2.847004247e-06,-1.728139084e-06,-1.936479435e-06,-3.243887470e-06,-3.107064091e-06,-7.786904234e-07,-3.582344986e-06,-2.558119861e-06,-7.962465610e-07,-1.213336686e-06,-1.384706359e-06,1.262644439e-07,-1.471953317e-06,-1.877541912e-06,4.199320844e-07,-6.677711566e-07,3.886607961e-06,-1.658615361e-06,-1.140994621e-06,-1.212240263e-06,-4.299795881e-07,-2.228138391e-06,-5.456749288e-06,5.199543810e-05
0,-3.438016895e-06,-2.502470474e-06,-1.634314812e-06,-3.299239103e-06,-2.455524788e-06,-1.313868029e-06,-8.781412938e-06,-3.077158548e-06,-2.697949968e-06,-5.345849057e-06,-4.198389229e-06,-2.341675821e-06,-5.096100708e-06,-3.258113821e-06,-2.678463601e-06,-2.982170721e-06,-2.356563685e-06,-1.296922593e-06,-2.127407797e-06,-2.862625866e-06,-6.144273611e-07,-1.238662734e-06,3.307519403e-06,-1.663643401e-06,-6.716311333e-07,-2.148718586e-06,-1.247264284e-06,-3.435779137e-06,-1.059206494e-06,1.089624307e-05
0.005,-5.011226902e-06,-2.744776429e-06,-2.208790728e-06,-3.674306722e-06,-3.856982633e-06,-2.156322371e-06,-1.065462682e-05,-3.871255381e-06,-3.498467604e-06,-6.226206810e-06,-5.347201172e-06,-3.295087808e-06,-6.504527150e-06,-4.649901936e-06,-5.729366969e-06,-4.863877806e-06,-4.044397155e-06,-3.475861291e-06,-3.111223377e-06,-3.765683778e-06,-3.235301794e-06,-2.594669412e-06,-4.117581342e-07,-2.537581482e-06,-1.075086700e-06,-3.510456492e-06,-3.060315944e-06,-4.948800986e-06,9.730808479e-06,-4.964021812e-05
0.01,-6.642075702e-06,-3.280927207e-06,-1.654893004e-06,-3.393368277e-06,-3.714868711e-06,-1.962680365e-06,-7.267916594e-06,-4.021526682e-06,-3.849587489e-06,-5.353868819e-06,-5.837280311e-06,-2.981533450e-06,-7.225355687e-06,-5.989817711e-06,-8.337129539e-06,-6.127550291e-06,-5.860242917e-06,-5.468461413e-06,-4.133470760e-06,-4.263909760e-06,-6.050773339e-06,-4.057099028e-06,-4.822424315e-06,-3.769075422e-06,-2.372668187e-06,-4.568734893e-06,-4.832203363e-06,-6.317863329e-06,7.203798631e-06,-3.726237272e-06
0.015,-7.760090006e-06,-3.702223143e-06,-8.093499086e-07,-2.614400204e-06,-2.405750401e-06,-9.963508283e-07,-1.023775306e-06,-3.685655841e-06,-3.168253295e-06,-3.576498309e-06,-5.138588919e-06,-1.857943651e-06,-6.778060843e-06,-6.045492992e-06,-8.890217105e-06,-6.395865174e-06,-6.922699499e-06,-6.121922010e-06,-4.414867380e-06,-4.000903302e-06,-7.254110245e-06,-4.502396296e-06,-6.198557280e-06,-4.158537078e-06,-3.331528241e-06,-4.521013184e-06,-5.543651969e-06,-7.038990134e-06,-1.603045144e-06,5.422956905e-05
0.02,-7.813817108e-06,-3.204577706e-06,-8.655027443e-07,-1.280016356e-06,-1.134947716e-06,5.472389188e-07,3.713641201e-06,-2.796821973e-06,-1.413446913e-06,-2.226740627e-06,-3.420355944e-06,-1.040328359e-06,-5.243482946e-06,-4.467442218e-06,-7.405953316e-06,-5.976245503e-06,-6.626400299e-06,-5.023323473e-06,-3.264991262e-06,-2.779190697e-06,-6.081480786e-06,-3.402152413e-06,-3.214623207e-06,-2.948392282e-06,-2.785975409e-06,-3.371243431e-06,-5.223576166e-06,-7.026268241e-06,3.553532377e-06,1.236309104e-05
0.025,-6.773417962e-06,-1.608877107e-06,-1.876428054e-06,6.573258722e-07,-6.057709622e-07,2.537929614e-06,4.158743765e-06,-1.127624078e-06,7.151382652e-07,-1.978886980e-06,-1.475605570e-06,-1.329774648e-06,-3.399787562e-06,-2.348297714e-06,-5.583684232e-06,-5.594587017e-06,-5.279835341e-06,-3.032575178e-06,-8.824912130e-07,-8.607520160e-07,-3.481221971e-06,-1.425134479e-06,1.288401787e-06,-6.398959151e-07,-1.076576945e-06,-2.107829917e-06,-4.784242587e-06,-6.719101443e-06,4.489698104e-06,-4.419564224e-05
0.03,-5.250668981e-06,1.233037478e-07,-2.669165726e-06,2.706029171e-06,-4.472023741e-07,4.456669449e-06,1.462086434e-06,1.066898133e-06,2.230490013e-06,-2.550941134e-06,-1.801816029e-07,-2.620243435e-06,-2.266466503e-06,-1.293248007e-06,-5.141967111e-06,-5.734263769e-06,-4.105640675e-06,-1.762017401e-06,1.458569714e-06,9.074434007e-07,-1.421563644e-06,1.911425581e-08,2.796950325e-06,1.285579918e-06,9.731548136e-08,-1.883895250e-06,-4.968971727e-06,-6.733425255e-06,9.827927950e-07,-5.893123782e-06
0.035,-4.227655481e-06,5.255981209e-07,-2.387772065e-06,3.756100500e-06,-6.405476708e-08,5.252787723e-06,-6.952377683e-07,2.680880855e-06,2.503490931e-06,-3.293254463e-06,-5.048871660e-09,-4.138992169e-06,-2.379121252e-06,-1.984290385e-06,-6.214144188e-06,-6.245243468e-06,-4.384307301e-06,-2.333615025e-06,2.221589283e-06,1.447218726e-06,-1.387785491e-06,-1.174005144e-07,-3.805129474e-07,1.520319366e-06,-5.988268894e-07,-2.967763082e-06,-5.640602370e-06,-7.342263448e-06,-8.661553920e-06,5.411257636e-05
0.04,-4.587061674e-06,-1.150237887e-06,-1.738716072e-06,2.827564871e-06,2.497885704e-07,4.042362864e-06,-1.094193440e-07,2.386938883e-06,1.565830484e-06,-3.848359838e-06,-8.999258440e-07,-5.177465033e-06,-3.456464415e-06,-3.709544589e-06,-7.475325449e-06,-6.627907958e-06,-6.431691458e-06,-4.487866276e-06,8.195314842e-07,2.042928672e-07,-3.266462952e-06,-1.754359597e-06,-5.344857773e-06,-1.823706490e-08,-2.675108771e-06,-4.511296757e-06,-6.088894100e-06,-8.205427187e-06,-1.231526794e-06,6.401870701e-06
0.045,-6.596733084e-06,-4.272110372e-06,-2.254027694e-06,7.549827410e-08,-5.040469348e-07,1.129608460e-06,1.657285774e-06,-1.482548367e-07,-1.621639686e-08,-4.237731967e-06,-2.436562475e-06,-5.566138501e-06,-4.742833850e-06,-5.184959447e-06,-7.692498268e-06,-6.624963866e-06,-9.366903319e-06,-6.836584773e-06,-1.865949069e-06,-2.270266833e-06,-5.494309137e-06,-3.838108323e-06,-7.533560368e-06,-2.118874806e-06,-4.261056443e-06,-5.364770718e-06,-5.831772498e-06,-8.589194724e-06,1.344921840e-05,-5.252001313e-05
0.05,-9.585529913e-06,-7.276123157e-06,-4.358934540e-06,-2.986055468e-06,-2.620507656e-06,-1.805102190e-06,1.433788986e-06,-3.710745831e-06,-1.454940254e-06,-4.509051737e-06,-3.975233661e-06,-5.494357821e-06,-5.616270193e-06,-5.654478448e-06,-6.879155134e-06,-6.396810559e-06,-1.186660071e-05,-8.006393572e-06,-4.161235526e-06,-4.527846920e-06,-6.338590819e-06,-5.160471764e-06,-5.266069009e-06,-3.251254050e-06,-4.010148123e-06,-5.111248268e-06,-4.977007124e-06,-7.934478889e-06,6.453230866e-06,-7.810346288e-06
0.055,-1.218039652e-05,-8.744340632e-06,-6.625515425e-06,-4.453459281e-06,-4.822161266e-06,-2.841538960e-06,-1.389162682e-06,-6.372196215e-06,-2.066342083e-06,-4.504412884e-06,-4.825316620e-06,-5.026270104e-06,-5.863541224e-06,-5.196722577e-06,-5.899155593e-06,-6.111429956e-06,-1.314449629e-05,-7.650687805e-06,-4.865050332e-06,-5.214871469e-06,-5.270030263e-06,-5.127466238e-06,-1.155021914e-06,-2.768944845e-06,-2.402077613e-06,-4.297216066e-06,-3.909323666e-06,-6.316760964e-06,-2.679482146e-06,4.710141765e-05
0.06,-1.319818749e-05,-8.229896121e-06,-7.213543428e-06,-3.462440717e-06,-5.245220438e-06,-1.386859215e-06,-3.790661967e-06,-7.026745499e-06,-1.577105988e-06,-4.029876811e-06,-4.510148761e-06,-4.008309779e-06,-5.531568001e-06,-4.232640365e-06,-5.263690854e-06,-5.584156342e-06,-1.329625708e-05,-6.525700299e-06,-3.998252552e-06,-4.087637944e-06,-3.316116402e-06,-3.982664784e-06,8.565258736e-07,-1.317192950e-06,-1.074263475e-06,-3.693197775e-06,-2.860491703e-06,-4.399125375e-06,8.612751499e-07,4.194776000e-06
0.065,-1.260844001e-05,-6.373720352e-06,-5.832457325e-06,-8.458845309e-07,-3.402996603e-06,1.308087198e-06,-2.733359790e-06,-6.190248118e-06,-3.045493189e-07,-3.182714995e-06,-3.084633852e-06,-2.549787769e-06,-4.765216792e-06,-3.031666973e-06,-4.672197257e-06,-4.570489183e-06,-1.292629991e-05,-5.722429574e-06,-2.523735472e-06,-2.174112047e-06,-2.131912178e-06,-2.499236046e-06,-5.541683479e-07,-1.120121038e-07,-1.019217626e-06,-3.426583303e-06,-1.880301743e-06,-2.932844409e-06,8.575120446e-06,-4.945817125e-05
0.07,-1.165533033e-05,-4.448095360e-06,-3.958279644e-06,1.544639189e-06,-9.241422719e-07,3.220990694e-06,8.276234244e-07,-5.344417543e-06,1.004266699e-06,-2.419396794e-06,-1.220854356e-06,-1.418750266e-06,-3.877193164e-06,-1.725609318e-06,-3.716157825e-06,-3.390390561e-06,-1.264342928e-05,-5.815360178e-06,-1.489666406e-06,-9.254790515e-07,-2.605901654e-06,-1.461697618e-06,-3.204136634e-06,2.098018076e-07,-1.674510011e-06,-2.930074721e-06,-1.083098206e-06,-2.282719709e-06,3.211962526e-06,-1.097057878e-05
0.075,-1.186297523e-05,-3.670953352e-06,-3.220752926e-06,2.246381127e-06,-9.809685110e-08,3.212647930e-06,2.670945713e-06,-5.540710803e-06,1.680104784e-06,-2.234413918e-06,1.530396220e-07,-1.599500794e-06,-3.367062419e-06,-5.547036429e-07,-2.656582122e-06,-2.941496206e-06,-1.287591621e-05,-6.595280574e-06,-1.398518660e-06,-1.085759711e-06,-4.195648409e-06,-1.246184318e-06,-4.020570762e-06,6.523951118e-08,-1.801214673e-06,-1.738312791e-06,-7.119182414e-07,-2.379486165e-06,-5.512556392e-06,4.984805992e-05
0.08,-1.374669277e-05,-4.569746901e-06,-3.999736864e-06,1.151768761e-06,-1.694968639e-06,1.743576373e-06,2.312128501e-07,-6.610842245e-06,1.608657687e-06,-2.722972462e-06,4.874944070e-07,-3.222186523e-06,-3.559109346e-06,1.568220653e-07,-2.194467332e-06,-3.795936875e-06,-1.387868931e-05,-7.439647602e-06,-2.136069215e-06,-2.214035251e-06,-5.508698572e-06,-1.665046194e-06,-2.046457395e-06,3.110966297e-07,-9.876891985e-07,-2.101719255e-07,-8.919269377e-07,-2.994758753e-06,3.733578817e-06,7.119276241e-06
0.085,-1.642159145e-05,-6.662975204e-06,-5.689191783e-06,-6.425663825e-07,-4.337258451e-06,1.593093087e-07,-4.211606000e-06,-7.590979586e-06,1.250886667e-06,-3.444009563e-06,2.561588364e-08,-5.054248146e-06,-4.132104948e-06,3.101951746e-07,-2.550633321e-06,-5.320184836e-06,-1.561795750e-05,-7.867712092e-06,-3.206396484e-06,-3.160691997e-06,-5.522445784e-06,-2.113167910e-06,1.071989705e-06,1.264017308e-06,-1.495050264e-08,6.983508513e-07,-1.398633235e-06,-3.904480331e-06,3.275001244e-06,-5.362731449e-05
0.09,-1.843943030e-05,-8.707186914e-06,-7.767070045e-06,-1.792912588e-06,-5.963283450e-06,-5.368026035e-07,-6.133374938e-06,-7.741518982e-06,1.221919558e-06,-3.758814480e-06,-3.854633475e-07,-5.400428650e-06,-4.215308074e-06,2.044304513e-07,-3.088443780e-06,-5.994370134e-06,-1.759083424e-05,-7.797058405e-06,-3.950787594e-06,-2.978354326e-06,-4.310688852e-06,-1.929777851e-06,2.999970937e-06,2.442549094e-06,2.376453907e-07,4.489393035e-07,-1.740704132e-06,-4.768941567e-06,-3.721937341e-06,-1.557142441e-05
0.095,-1.898157979e-05,-9.462764681e-06,-9.950832531e-06,-1.606192833e-06,-5.694000081e-06,-2.108196839e-07,-4.093901571e-06,-7.115137705e-06,1.867918410e-06,-3.387177645e-06,2.218323197e-08,-3.726408966e-06,-3.201707429e-06,3.227324325e-07,-2.999983094e-06,-4.838095258e-06,-1.894401942e-05,-7.378102219e-06,-3.751559756e-06,-1.502470213e-06,-2.700818835e-06,-7.752957730e-07,2.751928907e-06,3.262748235e-06,-3.988806029e-08,-3.667996305e-07,-1.465869949e-06,-5.056282844e-06,-7.582085598e-06,4.367508958e-05
0.1,-1.829307267e-05,-8.488593504e-06,-1.140692093e-05,-2.798854226e-07,-4.224914056e-06,7.926228683e-07,-1.245566038e-06,-6.291020963e-06,3.163515292e-06,-2.672567959e-06,1.302460288e-06,-1.308873986e-06,-1.492505912e-06,9.510605440e-07,-2.214335686e-06,-2.484283787e-06,-1.900758106e-05,-6.690812729e-06,-2.358778795e-06,7.105847489e-07,-1.358811032e-06,1.179094398e-06,1.158590766e-06,3.782197457e-06,2.547025366e-07,-4.834374464e-07,-4.029074680e-07,-4.362520789e-06,-3.339206098e-06,1.869543767e-06
0.105,-1.715572948e-05,-6.387160240e-06,-1.070749581e-05,1.439351046e-06,-2.719292645e-06,2.163228970e-06,-1.211744287e-06,-5.779867407e-06,4.792459409e-06,-2.266761587e-06,2.732769839e-06,-8.525940978e-08,-2.675994131e-07,1.977603602e-06,-1.435376416e-06,-6.843630540e-07,-1.784813985e-05,-5.700951674e-06,-2.242444528e-07,2.804338059e-06,-3.117675292e-07,3.305847622e-06,-8.688481250e-08,4.517160759e-06,1.831628819e-06,7.573540172e-07,1.264685016e-06,-2.917936094e-06,-4.125451232e-07,-5.624249895e-05
0.11,-1.617999689e-05,-4.387287412e-06,-7.353884467e-06,2.705664152e-06,-1.744393842e-06,3.579942698e-06,-3.622922583e-06,-5.768132976e-06,6.140998549e-06,-2.509107581e-06,3.370638887e-06,-8.298875261e-07,-4.081349542e-07,2.946225128e-06,-1.341023077e-06,-7.169157563e-07,-1.633139904e-05,-4.575282602e-06,1.517029352e-06,3.963948390e-06,6.367408274e-07,4.727543936e-06,2.523584160e-07,5.499799038e-06,4.020009775e-06,2.574179538e-06,3.003843561e-06,-1.643599983e-06,5.663331137e-09,-1.027930364e-05
0.115,-1.566889734e-05,-3.679495212e-06,-3.202366712e-06,2.824362856e-06,-1.328043672e-06,4.379879708e-06,-4.968184542e-06,-6.295219249e-06,6.314743312e-06,-3.133962782e-06,2.751248787e-06,-2.581476611e-06,-1.712321970e-06,3.226772916e-06,-1.974225391e-06,-2.358363410e-06,-1.561411607e-05,-3.979904162e-06,1.601153002e-06,3.563474051e-06,1.179432539e-06,4.598117210e-06,2.060860769e-06,5.771417892e-06,5.175079576e-06,3.270748445e-06,4.028512435e-06,-1.483813493e-06,-7.985820600e-06,4.249448774e-05
0.12,-1.594352725e-05,-4.931726219e-06,-1.534337990e-06,1.391031839e-06,-1.590697902e-06,3.708820229e-06,-3.479792821e-06,-7.427066679e-06,4.557588859e-06,-3.633809066e-06,1.147800143e-06,-3.867753049e-06,-3.256233134e-06,2.263310200e-06,-2.973338580e-06,-4.373550948e-06,-1.645409420e-05,-4.832385461e-06,-5.586933519e-07,1.331427558e-06,4.554137877e-07,2.480663547e-06,3.833585093e-06,4.134283247e-06,4.089613707e-06,1.709060261e-06,3.652894399e-06,-2.563447247e-06,-5.837439316e-06,3.145466153e-06
0.125,-1.742721634e-05,-8.032526659e-06,-4.091418115e-06,-1.480374882e-06,-2.793886877e-06,1.299769572e-06,-1.483088919e-06,-9.108553539e-06,1.028070769e-06,-3.878378537e-06,-7.597750133e-07,-4.263833035e-06,-4.429218828e-06,-4.855756390e-08,-4.126953819e-06,-5.775480828e-06,-1.877927145e-05,-7.463056265e-06,-4.369437985e-06,-2.338414106e-06,-2.047999345e-06,-1.225404837e-06,3.759760533e-06,5.382374509e-07,1.084638821e-06,-1.606639245e-06,1.862190769e-06,-4.012581983e-06,-2.345732515e-06,-5.741778412e-05
0.13,-2.017434757e-05,-1.197223340e-05,-9.157968629e-06,-4.938835402e-06,-4.703518512e-06,-1.926379826e-06,-2.032096077e-06,-1.091100816e-05,-2.817406482e-06,-4.255965226e-06,-2.415802012e-06,-4.530808959e-06,-5.406277474e-06,-3.027145221e-06,-5.386598111e-06,-6.420028078e-06,-2.170309301e-05,-1.090886918e-05,-8.234171572e-06,-6.197246334e-06,-5.511369419e-06,-5.118824069e-06,1.462863136e-06,-3.390679318e-06,-2.133522251e-06,-4.802586739e-06,-3.809583119e-07,-4.656226404e-06,-2.097887311e-06,-1.872916149e-05
0.135,-2.336893791e-05,-1.505185664e-05,-1.304133516e-05,-7.571795193e-06,-6.322565207e-06,-4.280381320e-06,-4.404198566e-06,-1.212884149e-05,-4.948967880e-06,-5.130512841e-06,-3.606054092e-06,-5.339505919e-06,-6.562857019e-06,-5.342499454e-06,-6.375402208e-06,-6.535832448e-06,-2.394601295e-05,-1.323753628e-05,-1.034833513e-05,-8.514869420e-06,-7.914935385e-06,-7.297435759e-06,-1.153229539e-06,-5.407361034e-06,-3.656309865e-06,-6.001720050e-06,-1.616719695e-06,-3.905553412e-06,-5.778673242e-06,4.479989300e-05
0.14,-2.554595069e-05,-1.569460201e-05,-1.356187480e-05,-8.149491394e-06,-6.666362423e-06,-4.545270050e-06,-4.826987315e-06,-1.229375619e-05,-4.255757122e-06,-6.247328676e-06,-4.262865075e-06,-6.251261848e-06,-7.664839202e-06,-5.803819555e-06,-6.293296709e-06,-6.105551593e-06,-2.450049930e-05,-1.293882367e-05,-9.689479209e-06,-8.057040266e-06,-7.494733836e-06,-6.495346205e-06,-1.308758712e-06,-4.399761132e-06,-2.673709963e-06,-4.639748522e-06,-1.004656885e-06,-2.074835356e-06,-4.158752052e-06,-3.246368187e-06
0.145,-2.557465036e-05,-1.355330318e-05,-1.180544371e-05,-6.491531774e-06,-5.808598247e-06,-2.891677851e-06,-1.892122358e-06,-1.161457136e-05,-1.471725132e-06,-6.849214713e-06,-4.237422468e-06,-6.215511993e-06,-7.920316929e-06,-4.272079670e-06,-4.667385248e-06,-4.977157214e-06,-2.322084778e-05,-1.023945416e-05,-6.632110522e-06,-5.019238038e-06,-4.316415888e-06,-3.105290977e-06,1.820181758e-06,-1.222585461e-06,-1.445168343e-08,-1.762207487e-06,8.667882874e-07,-1.864173319e-08,3.047729948e-06,-5.601330552e-05
0.15,-2.356450088e-05,-9.939646518e-06,-1.035849526e-05,-3.667684357e-06,-4.873101614e-06,-5.928921641e-07,6.194874261e-07,-1.081660785e-05,1.455914898e-06,-6.448002161e-06,-3.404676792e-06,-4.925072713e-06,-6.862097340e-06,-1.824485210e-06,-2.149362190e-06,-3.413218773e-06,-2.091934838e-05,-7.019258387e-06,-2.758511373e-06,-1.049964776e-06,-4.146142000e-07,8.789044443e-07,5.739315888e-06,2.086098247e-06,2.418307023e-06,7.889555045e-07,2.370260206e-06,1.424410866e-06,-3.899789841e-06,-1.537492121e-05
0.155,-2.080715419e-05,-6.906774865e-06,-1.027343615e-05,-1.214970877e-06,-4.828856455e-06,1.120262522e-06,-1.950767322e-06,-1.046018495e-05,3.032060503e-06,-5.374835429e-06,-1.975171986e-06,-3.327922925e-06,-4.969113731e-06,1.142282900e-07,-2.172514877e-07,-2.137421344e-06,-1.880363375e-05,-5.256393961e-06,1.166136461e-07,1.848232580e-06,1.804585706e-06,3.201629691e-06,6.703556024e-06,3.889048365e-06,2.991447181e-06,1.639717399e-06,2.256750329e-06,1.783474186e-06,-1.521302824e-05,4.290726124e-05
0.16,-1.876218272e-05,-5.622469298e-06,-1.030059267e-05,5.823395033e-09,-5.447069029e-06,1.912760603e-06,-8.512859897e-06,-1.042227465e-05,3.309112655e-06,-4.445923687e-06,-5.408834969e-07,-2.660996451e-06,-3.265152953e-06,9.186061762e-07,1.608350210e-07,-1.661601628e-06,-1.765784716e-05,-5.425735823e-06,1.096750183e-06,2.718630370e-06,1.500070409e-06,2.981748759e-06,3.523089976e-06,3.947443551e-06,1.573621241e-06,7.550035627e-07,8.380646315e-07,1.112136926e-06,-5.834123576e-06,4.526199311e-06
0.165,-1.801387352e-05,-5.572967921e-06,-9.005844432e-06,2.745482128e-07,-5.673612959e-06,2.199589784e-06,-1.206622591e-05,-1.011761752e-05,3.410513552e-06,-4.126755110e-06,3.408413566e-07,-3.163909360e-06,-2.396530791e-06,1.087733991e-06,-5.081602169e-07,-1.731384526e-06,-1.746941224e-05,-6.373057454e-06,6.603531508e-07,2.157861803e-06,-1.225297276e-07,1.247268361e-06,-9.409253827e-07,3.200000972e-06,-3.332037413e-07,-6.239160023e-07,-2.503298261e-07,2.422920375e-08,4.499292374e-07,-5.582103413e-05
0.17,-1.811615930e-05,-5.395772313e-06,-6.906417816e-06,4.181850737e-07,-4.986618183e-06,2.409168119e-06,-7.406085772e-06,-9.250307358e-06,4.141822886e-06,-4.180208753e-06,6.237023157e-07,-3.963254402e-06,-2.264361649e-06,1.477080849e-06,-8.035966071e-07,-1.648049009e-06,-1.776903011e-05,-6.672850513e-06,4.714807855e-08,1.524890273e-06,-1.164659859e-06,-1.006549560e-07,-2.502041440e-06,2.806480139e-06,-8.227901337e-07,-9.485636362e-07,4.208384647e-07,-5.539387425e-07,-4.333188939e-06,-1.042982496e-05
0.175,-1.833304936e-05,-4.406976721e-06,-5.930265432e-06,8.672088504e-07,-4.092051814e-06,2.567265984e-06,2.032343424e-06,-8.263198064e-06,5.223486120e-06,-4.170528173e-06,7.523635406e-07,-4.167404993e-06,-2.490970531e-06,2.309033463e-06,7.420917654e-08,-1.096106112e-06,-1.820084569e-05,-5.975226591e-06,1.391635405e-07,1.671273120e-06,-8.073588148e-07,8.116694848e-08,1.408549045e-07,3.338106732e-06,7.598327192e-07,4.086520850e-07,2.668353575e-06,-8.337476594e-09,-1.176624981e-05,4.516180888e-05
0.18,-1.842522049e-05,-3.150498762e-06,-6.961517318e-06,1.376110666e-06,-4.083275650e-06,2.540712384e-06,6.914602166e-06,-7.924800374e-06,5.842457109e-06,-4.112582478e-06,1.141281178e-06,-3.819987037e-06,-2.936589801e-06,3.028909160e-06,1.508412248e-06,-4.441678028e-07,-1.866487354e-05,-5.012382195e-06,8.707653507e-07,2.412492271e-06,2.196380626e-07,1.436308862e-06,4.254846578e-06,4.587004221e-06,3.223247893e-06,2.620402488e-06,4.772951339e-06,1.382706613e-06,-5.343424067e-06,-1.174674161e-06
0.185,-1.871115220e-05,-2.498576610e-06,-8.619832425e-06,1.581735116e-06,-5.061873541e-06,2.431920634e-06,2.007326497e-06,-8.446175505e-06,5.707111829e-06,-4.389479050e-06,1.756647401e-06,-3.652844853e-06,-3.554319202e-06,3.091026245e-06,2.286187230e-06,-1.811085585e-07,-1.902101143e-05,-4.525873477e-06,1.619639856e-06,3.093000275e-06,7.198227512e-07,2.783387350e-06,6.157936868e-06,5.894964545e-06,4.611144581e-06,4.090023251e-06,4.988987612e-06,2.579358374e-06,6.097857735e-08,-5.649092434e-05
0.19,-1.949977839e-05,-2.562686415e-06,-8.842904869e-06,1.575737337e-06,-5.913532387e-06,2.515893795e-06,-7.888742089e-06,-9.119124376e-06,5.342669576e-06,-5.049298264e-06,2.284504440e-06,-4.066241855e-06,-3.924819147e-06,2.711159159e-06,2.029925835e-06,-2.742442261e-07,-1.897470265e-05,-4.509136199e-06,1.980676652e-06,3.423841684e-06,3.142072012e-07,3.334671556e-06,4.973185754e-06,6.659308805e-06,3.965132631e-06,3.847529469e-06,3.066322370e-06,2.683942894e-06,-5.785735778e-06,-1.127212286e-05
0.195,-2.066069474e-05,-2.804411407e-06,-7.360408114e-06,1.722320608e-06,-5.575583683e-06,2.793196915e-06,-1.312083851e-05,-8.977351398e-06,5.385839748e-06,-5.470250151e-06,2.622917750e-06,-4.602935010e-06,-3.363996259e-06,2.688475997e-06,1.547798112e-06,-2.990144911e-07,-1.849278795e-05,-4.564077009e-06,2.002444626e-06,3.605995271e-06,-4.120370783e-07,3.209855475e-06,2.952005510e-06,6.706953269e-06,2.079852962e-06,2.396697254e-06,3.909562740e-07,1.773858197e-06,-1.100361203e-05,4.590459714e-05
0.2,-2.183638146e-05,-3.099381677e-06,-6.069515492e-06,1.989529819e-06,-4.330932210e-06,2.788099404e-06,-9.676561590e-06,-7.854976629e-06,5.818977078e-06,-4.974434617e-06,3.012276383e-06,-4.491696338e-06,-1.731067484e-06,3.489628502e-06,1.743850529e-06,-1.235630639e-07,-1.823064589e-05,-4.695028490e-06,1.752071842e-06,3.741996641e-06,-7.914994193e-07,2.938433279e-06,2.465927900e-06,6.337442006e-06,6.009327612e-07,1.181054572e-06,-1.284271575e-06,7.698330313e-07,-5.171802574e-06,7.543230856e-06
0.205,-2.296014280e-05,-4.195243015e-06,-6.873147320e-06,1.765137235e-06,-3.579217184e-06,1.958735109e-06,-3.023059737e-06,-6.684373105e-06,6.053681186e-06,-3.724887375e-06,3.605147798e-06,-3.573704395e-06,4.195537196e-08,4.652261178e-06,2.463840053e-06,-1.724238706e-07,-1.918976401e-05,-5.377895128e-06,9.775692657e-07,3.455311357e-06,-7.726850788e-07,2.750126903e-06,3.515957049e-06,6.017608277e-06,4.972699275e-07,1.187223957e-06,-1.246190162e-06,4.764690027e-07,-2.973995762e-06,-5.566929942e-05
0.21,-2.435677071e-05,-6.762256021e-06,-9.535803316e-06,5.483687033e-07,-4.297786508e-06,3.373501435e-07,-1.226718082e-06,-6.610286714e-06,5.690804313e-06,-2.746851123e-06,4.079140067e-06,-2.558709159e-06,5.892065721e-07,5.222496485e-06,2.696892874e-06,-8.594840392e-07,-2.169950084e-05,-6.801787250e-06,-5.264295999e-07,2.340982557e-06,-6.954550964e-07,2.494810384e-06,4.472971744e-06,5.976461899e-06,1.439820970e-06,2.102611136e-06,-1.194127147e-07,8.672663845e-07,-7.574702134e-06,-1.243309337e-05
0.215,-2.624628755e-05,-1.015845509e-05,-1.198909161e-05,-1.272254010e-06,-5.939726839e-06,-1.310693413e-06,-5.718798960e-06,-7.775739964e-06,5.015406799e-06,-2.884980590e-06,3.932356838e-06,-2.350162183e-06,-5.305978841e-07,4.786216023e-06,1.880704164e-06,-1.912268965e-06,-2.482011896e-05,-8.349483731e-06,-2.294518249e-06,7.271209367e-07,-6.786193803e-07,2.118520407e-06,4.509507507e-06,6.079676438e-06,2.488354338e-06,2.855866595e-06,9.957794256e-07,1.365620441e-06,-1.288016644e-05,4.258047570e-05
0.22,-2.828060057e-05,-1.262707671e-05,-1.260863746e-05,-2.603471399e-06,-7.025393914e-06,-2.045583964e-06,-1.031446945e-05,-9.061524528e-06,4.687411459e-06,-3.816974019e-06,3.221579263e-06,-3.129872172e-06,-2.198461651e-06,3.983159214e-06,7.168018168e-07,-2.495998083e-06,-2.702827168e-05,-9.120064318e-06,-3.290457109e-06,-3.090864097e-07,-5.454940716e-07,1.945817393e-06,4.345244199e-06,6.115590692e-06,3.114045600e-06,2.878804506e-06,1.543102837e-06,1.668287086e-06,-9.945669166e-06,1.848738189e-06
0.225,-2.978292534e-05,-1.299989236e-05,-1.183463462e-05,-2.745231499e-06,-6.753445624e-06,-1.528564093e-06,-8.962894582e-06,-9.114055288e-06,5.054013040e-06,-4.282084361e-06,2.794604595e-06,-4.070959374e-06,-2.631758553e-06,3.935155678e-06,4.966781761e-07,-2.038219748e-06,-2.764645125e-05,-8.937591183e-06,-2.902770389e-06,8.992588828e-08,-3.106298654e-07,2.359136318e-06,4.619065474e-06,6.167724006e-06,3.480587840e-06,2.685657640e-06,1.768198759e-06,2.062267138e-06,1.251455608e-07,-5.927909585e-05
0.23,-3.050916636e-05,-1.203849627e-05,-1.147760941e-05,-2.190323120e-06,-5.824221876e-06,-3.080924236e-07,-2.692936894e-06,-7.655474716e-06,5.858052010e-06,-3.346660116e-06,3.528926550e-06,-3.948418748e-06,-1.003479056e-06,5.162261158e-06,1.713050447e-06,-7.726699287e-07,-2.751604728e-05,-8.604001806e-06,-1.770387552e-06,1.600632324e-06,-3.861022154e-07,3.292099232e-06,4.557512520e-06,6.601078491e-06,3.951062271e-06,3.189284053e-06,2.214903257e-06,2.913740625e-06,-7.159360780e-06,-1.225306157e-05
0.235,-3.103695362e-05,-1.177700705e-05,-1.272562808e-05,-2.167797937e-06,-5.605816551e-06,5.934782017e-07,2.043974803e-06,-5.778936062e-06,6.539238195e-06,-1.376201711e-06,5.279706303e-06,-2.177565986e-06,1.795320147e-06,7.058473885e-06,3.534056298e-06,5.928861568e-07,-2.813476483e-05,-9.057649347e-06,-1.347874013e-06,2.871540556e-06,-1.080833886e-06,4.177102886e-06,3.054821502e-06,7.588059807e-06,4.578351779e-06,4.581163415e-06,3.121716326e-06,4.067438293e-06,-1.324710790e-05,4.435249076e-05
0.24,-3.223536219e-05,-1.348313225e-05,-1.508212015e-05,-3.406573617e-06,-6.642224566e-06,3.776087751e-07,8.865467210e-07,-4.986881828e-06,6.653080321e-06,2.682727238e-07,6.726555888e-06,5.383515012e-07,3.917807287e-06,8.375808098e-06,4.655126978e-06,1.571122707e-06,-3.014418069e-05,-1.043890155e-05,-2.517085810e-06,2.694228714e-06,-2.074200098e-06,4.387553678e-06,6.733817203e-07,8.649772496e-06,5.067434041e-06,5.999805038e-06,4.223025326e-06,4.927102525e-06,-6.345846087e-06,-3.123667826e-06
0.245,-3.433548497e-05,-1.646215112e-05,-1.712554660e-05,-5.492643901e-06,-8.165663735e-06,-1.111375790e-06,-4.143766459e-06,-5.969897899e-06,5.971470066e-06,4.127736566e-07,6.412581761e-06,2.541705238e-06,4.006628743e-06,8.165648745e-06,4.476725625e-06,2.072816683e-06,-3.275003512e-05,-1.212533818e-05,-4.736861459e-06,9.758992131e-07,-2.724743425e-06,3.635694191e-06,-5.031911324e-07,8.762087899e-06,5.006239338e-06,6.261581509e-06,4.926985088e-06,5.041476430e-06,-3.148704128e-06,-5.537125221e-05
0.25,-3.663202595e-05,-1.894441664e-05,-1.796563925e-05,-7.453511654e-06,-9.053022442e-06,-3.440488156e-06,-7.854384411e-06,-8.240773567e-06,4.391023199e-06,-1.065975198e-06,3.983284896e-06,2.415730170e-06,2.011550099e-06,6.322204482e-06,3.358386963e-06,2.007751657e-06,-3.459331483e-05,-1.353357126e-05,-6.673509585e-06,-1.415104207e-06,-2.934502132e-06,1.973447398e-06,5.956763439e-07,7.064772467e-06,4.046332659e-06,4.841428693e-06,4.643052706e-06,4.430114742e-06,-6.932694511e-06,-1.486477643e-05
0.255,-3.815138299e-05,-1.991166653e-05,-1.784217609e-05,-8.751430114e-06,-9.045605241e-06,-5.893495846e-06,-7.808590266e-06,-1.073723213e-05,2.027561312e-06,-3.348516626e-06,4.412861365e-07,1.475316563e-07,-1.068039686e-06,3.454096865e-06,1.950471601e-06,1.090872010e-06,-3.502749688e-05,-1.456895200e-05,-7.551370869e-06,-3.556640165e-06,-3.362514933e-06,-3.533756303e-07,2.367848387e-06,3.630845835e-06,2.100312988e-06,2.235809262e-06,3.179391052e-06,3.387597445e-06,-1.036658328e-05,4.385257857e-05
0.26,-3.853881850e-05,-1.978985199e-05,-1.756194576e-05,-9.503530147e-06,-8.873332268e-06,-7.743602820e-06,-5.916767011e-06,-1.259498396e-05,-5.206105449e-07,-5.362246133e-06,-2.692704003e-06,-2.777868415e-06,-3.946083885e-06,4.765236566e-07,6.288247474e-07,-6.834418342e-07,-3.448489495e-05,-1.523128550e-05,-7.672316581e-06,-5.039535337e-06,-4.507471545e-06,-2.840708537e-06,2.252468313e-06,-3.467579813e-07,-3.430339277e-07,-3.924346774e-07,1.108342763e-06,2.260212166e-06,-6.741143437e-06,2.385221646e-07
0.265,-3.823292308e-05,-1.947291290e-05,-1.767162209e-05,-9.862949955e-06,-9.274505260e-06,-8.437608852e-06,-4.891112912e-06,-1.341111634e-05,-2.216107335e-06,-6.344264382e-06,-4.381818234e-06,-4.545727123e-06,-5.637794380e-06,-1.679139252e-06,-3.678026682e-07,-2.510299876e-06,-3.379555057e-05,-1.515763718e-05,-7.649974318e-06,-5.754879453e-06,-5.778588102e-06,-4.631558747e-06,-5.690719606e-08,-3.165743204e-06,-2.165178012e-06,-1.850218261e-06,-2.833487736e-07,1.548245545e-06,2.175013599e-06,-5.342666137e-05
0.27,-3.788177984e-05,-1.914503561e-05,-1.819930519e-05,-9.595481474e-06,-1.014060441e-05,-7.795736679e-06,-4.899185659e-06,-1.310927098e-05,-2.218300707e-06,-6.068541493e-06,-4.429458840e-06,-4.441253947e-06,-5.752837677e-06,-2.309144547e-06,-6.369567165e-07,-3.133630144e-06,-3.343675563e-05,-1.401203724e-05,-7.506409991e-06,-5.535691306e-06,-5.961651003e-06,-4.891639095e-06,-2.045274530e-06,-3.669033706e-06,-2.313030757e-06,-1.512396583e-06,2.006535318e-07,1.906933539e-06,-6.158680793e-06,-1.863594162e-05
0.275,-3.778045972e-05,-1.838830856e-05,-1.893590720e-05,-8.524145653e-06,-1.074757287e-05,-6.211291667e-06,-4.421237983e-06,-1.189947738e-05,-6.736441691e-07,-4.930301447e-06,-3.274002716e-06,-3.232082488e-06,-4.656159322e-06,-1.344937567e-06,9.159723472e-08,-2.034071882e-06,-3.348814485e-05,-1.235475185e-05,-6.848824966e-06,-4.350562716e-06,-4.785173074e-06,-3.602735922e-06,-1.448756208e-06,-2.056505841e-06,-8.902233856e-07,2.425893707e-07,2.513648741e-06,3.543500737e-06,-1.522154448e-05,4.460088813e-05
0.28,-3.789345513e-05,-1.722952196e-05,-1.972495698e-05,-7.191980447e-06,-1.068650986e-05,-4.611533838e-06,-3.270363283e-06,-1.039846983e-05,1.172315372e-06,-3.873241934e-06,-1.732117857e-06,-2.229625269e-06,-3.386097386e-06,3.242672249e-07,1.313978197e-06,-1.989465978e-07,-3.401546614e-05,-1.166514847e-05,-5.809165392e-06,-2.779522020e-06,-3.640354246e-06,-1.912369678e-06,8.012143678e-07,1.616393176e-07,5.725807138e-07,2.052005801e-06,5.007380813e-06,5.504912958e-06,-1.121663141e-05,-1.457936597e-06
0.285,-3.817883253e-05,-1.652816155e-05,-2.046356085e-05,-6.631936921e-06,-1.031745000e-05,-3.982290356e-06,-3.195133239e-06,-9.476261627e-06,1.855450300e-06,-3.889688573e-06,-7.813983710e-07,-2.080394207e-06,-3.061950816e-06,1.218142978e-06,1.809865192e-06,5.778045614e-07,-3.513830625e-05,-1.302775602e-05,-5.315636604e-06,-1.890638291e-06,-4.235858221e-06,-1.332669176e-06,1.637160713e-06,1.181851117e-06,3.704864374e-07,2.381630768e-06,5.598595628e-06,6.024462369e-06,-6.745312406e-07,-5.837487227e-05
0.29,-3.862824967e-05,-1.702469115e-05,-2.094936762e-05,-7.256666147e-06,-1.022106203e-05,-4.656642183e-06,-5.260859314e-06,-9.631211790e-06,8.922052797e-07,-5.189182047e-06,-1.083655798e-06,-2.475625452e-06,-3.985310375e-06,4.211437767e-07,7.653018497e-07,-6.169339243e-07,-3.665594522e-05,-1.576317078e-05,-6.092748323e-06,-2.312658155e-06,-6.504735413e-06,-2.322829091e-06,-2.266151092e-07,2.672389127e-07,-1.607364945e-06,8.092966535e-07,3.663306404e-06,4.129047058e-06,-5.259743576e-06,-1.237679540e-05
0.295,-3.902847415e-05,-1.823197352e-05,-2.083617659e-05,-8.192719999e-06,-1.037213815e-05,-5.961504236e-06,-7.766915630e-06,-1.043705521e-05,-8.055557125e-07,-6.779988313e-06,-2.357333310e-06,-2.807382034e-06,-5.240784961e-06,-1.403848470e-06,-1.134603283e-06,-2.812382362e-06,-3.786776403e-05,-1.772649956e-05,-7.556911894e-06,-3.462732741e-06,-8.321825989e-06,-3.725803127e-06,-2.497941223e-06,-1.630933638e-06,-3.531219401e-06,-1.379789260e-06,7.999603004e-07,9.645667358e-07,-1.110635311e-05,4.490276803e-05
0.3,-3.899941683e-05,-1.872195580e-05,-1.981870619e-05,-8.080691859e-06,-1.009593616e-05,-6.682854597e-06,-7.755133058e-06,-1.080768091e-05,-1.745086337e-06,-7.127329009e-06,-3.338015277e-06,-2.792178267e-06,-5.391409719e-06,-2.343813974e-06,-2.057080811e-06,-3.943001845e-06,-3.805481942e-05,-1.728308353e-05,-8.151679846e-06,-3.963441699e-06,-7.693374300e-06,-3.839561648e-06,-2.125241559e-06,-2.649859063e-06,-3.348355748e-06,-2.171983260e-06,-5.234927333e-07,-9.004370515e-07,-1.905850882e-06,4.704858891e-06
0.305,-3.849517852e-05,-1.769670055e-05,-1.797672229e-05,-6.633110950e-06,-8.914747018e-06,-6.103102445e-06,-4.420519437e-06,-1.003562791e-05,-1.192854945e-06,-5.515611039e-06,-2.776283162e-06,-2.412296691e-06,-3.806164780e-06,-9.421262675e-07,-7.445186398e-07,-2.742003148e-06,-3.721087756e-05,-1.497981714e-05,-7.004292540e-06,-3.002903682e-06,-5.081094138e-06,-2.147967331e-06,6.782180983e-07,-1.657242041e-06,-8.983870786e-07,-7.020673205e-07,7.408995055e-07,1.390417942e-07,-1.191935208e-06,-5.637641587e-05
0.31,-3.814008897e-05,-1.607101390e-05,-1.602499060e-05,-5.171713338e-06,-7.299302652e-06,-4.710117538e-06,-2.695439897e-07,-8.606809183e-06,1.814102831e-07,-2.839927109e-06,-7.277820009e-07,-1.601643164e-06,-1.363742390e-06,2.247280737e-06,2.135560400e-06,8.654077621e-08,-3.618112544e-05,-1.307136877e-05,-5.062371419e-06,-1.231424769e-06,-3.097906788e-06,1.030716890e-07,2.404525492e-06,7.010389358e-07,1.870573886e-06,1.863656018e-06,3.295140125e-06,3.092810312e-06,-2.443552769e-06,-1.506139061e-05
0.315,-3.874643728e-05,-1.571820668e-05,-1.511474636e-05,-5.389369893e-06,-6.401223982e-06,-3.839901343e-06,1.325273562e-06,-7.869291799e-06,9.348682836e-07,-9.542635910e-07,1.257148000e-06,-3.820110041e-07,2.414599757e-07,4.936611042e-06,4.546891769e-06,2.534369806e-06,-3.597906037e-05,-1.333500862e-05,-4.290825802e-06,-1.940895502e-07,-3.738738726e-06,1.129939843e-06,5.463071781e-07,2.589908061e-06,2.886463956e-06,3.516293581e-06,4.894173873e-06,5.388727537e-06,-9.479199184e-06,4.657628254e-05
0.32,-4.036590966e-05,-1.759439831e-05,-1.607326746e-05,-7.603126376e-06,-6.983091580e-06,-4.491499588e-06,-7.203865160e-07,-8.790188488e-06,1.452356387e-07,-1.124549733e-06,1.470935409e-06,7.232523298e-07,-1.182168872e-08,5.153466073e-06,5.051809036e-06,3.110678436e-06,-3.696500471e-05,-1.545937659e-05,-5.698038089e-06,-8.678092721e-07,-6.228813896e-06,3.435767865e-07,-3.023542043e-06,2.695944904e-06,2.003046305e-06,3.500235610e-06,4.575675078e-06,5.529082214e-06,-1.232034975e-06,1.663743217e-06
0.325,-4.201510418e-05,-2.074881823e-05,-1.857649157e-05,-1.040288794e-05,-8.667216212e-06,-6.413140192e-06,-4.690890479e-06,-1.102341684e-05,-1.827687610e-06,-3.043089540e-06,-3.434828910e-07,8.534348518e-07,-1.615768906e-06,3.090735138e-06,4.117110495e-06,2.064782901e-06,-3.869891725e-05,-1.761409111e-05,-8.334335214e-06,-2.810288885e-06,-7.943062386e-06,-1.215767789e-06,-3.968251284e-06,1.388505304e-06,9.296379626e-07,3.013608459e-06,3.383272687e-06,4.467714124e-06,5.359273552e-06,-5.445807930e-05
0.33,-4.259869425e-05,-2.325240971e-05,-2.111989785e-05,-1.205651263e-05,-1.027396453e-05,-8.342158888e-06,-8.147739452e-06,-1.320201622e-05,-3.742213142e-06,-5.250342688e-06,-2.783325807e-06,-2.668473495e-07,-3.097976631e-06,8.569951009e-07,3.408942851e-06,9.262405041e-07,-4.050244894e-05,-1.840425462e-05,-1.031000618e-05,-4.696200311e-06,-7.313057472e-06,-2.066053263e-06,-6.189644652e-07,2.044536513e-07,1.261623022e-06,3.694379484e-06,2.970995787e-06,4.219966427e-06,-2.691590978e-06,-1.008555429e-05
0.335,-4.211414316e-05,-2.399524280e-05,-2.211312840e-05,-1.210019753e-05,-1.085377618e-05,-9.132519900e-06,-9.841507867e-06,-1.410064491e-05,-4.553314552e-06,-6.392910121e-06,-4.169376553e-06,-1.701304011e-06,-3.367894776e-06,3.751059169e-07,3.948552539e-06,9.406303051e-07,-4.203234411e-05,-1.804116315e-05,-1.062718558e-05,-5.535395374e-06,-5.379445646e-06,-1.690222327e-06,3.853806655e-06,2.666423445e-07,2.874703455e-06,5.607304798e-06,3.783611860e-06,5.410675157e-06,-1.286556052e-05,4.293685234e-05
0.34,-4.173010090e-05,-2.347133512e-05,-2.124829534e-05,-1.144818049e-05,-1.035182360e-05,-8.629603285e-06,-9.685708051e-06,-1.349755728e-05,-4.136767783e-06,-6.079951706e-06,-4.006773406e-06,-2.004965007e-06,-2.508361465e-06,1.623550010e-06,5.179310988e-06,1.978206601e-06,-4.328888194e-05,-1.766056580e-05,-9.852221503e-06,-5.323172205e-06,-4.339572832e-06,-7.308529807e-07,4.958455502e-06,1.301714027e-06,4.322068888e-06,7.064573984e-06,4.789841217e-06,6.639525746e-06,-1.065737666e-05,-7.365412303e-07
0.345,-4.253468961e-05,-2.290314748e-05,-1.975986353e-05,-1.111317476e-05,-9.353223878e-06,-7.505150273e-06,-7.748401122e-06,-1.203396537e-05,-3.116783213e-06,-4.765550872e-06,-3.047667215e-06,-7.271018569e-07,-1.377396399e-06,2.997527977e-06,5.839947174e-06,2.913044415e-06,-4.421181133e-05,-1.784241605e-05,-9.143018965e-06,-4.700504607e-06,-4.983822825e-06,-6.304705856e-08,1.976331280e-06,2.165316041e-06,4.504940962e-06,6.511729328e-06,4.830972404e-06,6.309655539e-06,2.035752212e-06,-5.453145444e-05
0.35,-4.430295880e-05,-2.284560170e-05,-1.916346066e-05,-1.111909030e-05,-8.368663653e-06,-6.425451322e-06,-4.049180783e-06,-1.047244502e-05,-2.177028011e-06,-3.137517103e-06,-2.161393544e-06,1.004673236e-06,-6.392798831e-07,3.231161739e-06,5.472355292e-06,2.953433476e-06,-4.446902523e-05,-1.807379182e-05,-8.978167419e-06,-4.253846937e-06,-6.050176421e-06,1.059868741e-08,-1.357596828e-06,2.125923996e-06,3.638684721e-06,4.323113885e-06,3.881376191e-06,4.638722938e-06,2.832615543e-07,-1.087362760e-05
0.355,-4.566258919e-05,-2.278123507e-05,-1.969370182e-05,-1.074702744e-05,-7.484452656e-06,-5.549873429e-06,6.912821250e-07,-9.215455540e-06,-1.601878376e-06,-1.739993719e-06,-1.480802008e-06,1.638005056e-06,-2.894143624e-07,2.684725608e-06,4.812482123e-06,2.475594966e-06,-4.374834160e-05,-1.756831949e-05,-8.980130425e-06,-4.182180714e-06,-6.028938472e-06,-3.255595149e-07,-1.265315528e-06,1.481441539e-06,2.675416939e-06,2.477417515e-06,2.876793939e-06,3.452074245e-06,-1.135010435e-05,4.401403455e-05
0.36,-4.547208147e-05,-2.195414452e-05,-2.011825921e-05,-9.592807273e-06,-6.621471373e-06,-4.777693578e-06,4.692098378e-06,-8.387271566e-06,-1.335465335e-06,-9.547308826e-07,-6.967858842e-07,8.363587816e-07,-9.056987205e-09,2.664402354e-06,4.763915444e-06,2.493360330e-06,-4.222929258e-05,-1.627945140e-05,-8.695460577e-06,-4.376940482e-06,-5.013131408e-06,-8.931257746e-07,1.852760172e-06,1.022697568e-06,2.197535118e-06,2.528860250e-06,2.570885682e-06,4.078153052e-06,-3.552342581e-06,3.047765699e-06
0.365,-4.391099371e-05,-2.035466683e-05,-1.918980142e-05,-8.083780382e-06,-5.918159925e-06,-4.187886639e-06,5.942061680e-06,-8.060156878e-06,-1.230351317e-06,-9.732694430e-07,1.662050117e-07,-3.024380308e-07,2.737827925e-07,3.729813854e-06,5.301412065e-06,3.377597538e-06,-4.066701902e-05,-1.493582926e-05,-8.146484249e-06,-4.544621343e-06,-4.369124510e-06,-1.594299597e-06,4.164253666e-06,1.160283879e-06,2.097961251e-06,4.144716797e-06,2.853330571e-06,5.863252015e-06,1.227025797e-06,-5.419678875e-05
0.37,-4.221313524e-05,-1.878260533e-05,-1.717792297e-05,-6.954467013e-06,-5.716919212e-06,-3.990349738e-06,3.527187798e-06,-8.212218707e-06,-1.118431815e-06,-1.611103459e-06,6.469296576e-07,-6.585358765e-07,3.448994294e-07,5.004258306e-06,5.584628266e-06,4.273046462e-06,-3.990864164e-05,-1.424573419e-05,-7.579130586e-06,-4.278253477e-06,-4.857687273e-06,-2.100255630e-06,2.889858397e-06,1.688629223e-06,2.077756856e-06,5.671400095e-06,3.126222086e-06,6.942082598e-06,-5.463823816e-06,-1.085331327e-05
0.375,-4.151614753e-05,-1.805694099e-05,-1.577024400e-05,-6.476497208e-06,-6.208065561e-06,-4.111460721e-06,-1.690904735e-06,-8.569071813e-06,-7.780182378e-07,-2.282492975e-06,5.033387564e-07,-3.622322547e-07,1.487750289e-07,5.209268205e-06,5.021248460e-06,3.919286158e-06,-4.025517515e-05,-1.431993907e-05,-7.032235326e-06,-3.302393139e-06,-5.686345455e-06,-1.882319773e-06,-7.972629314e-07,2.215186801e-06,2.035311159e-06,5.867644681e-06,3.011795424e-06,6.213689899e-06,-8.487479879e-06,4.481467283e-05
0.38,-4.208934951e-05,-1.831230113e-05,-1.639268187e-05,-6.370464820e-06,-7.194022384e-06,-4.113038749e-06,-7.420958053e-06,-8.723372137e-06,-7.675859042e-08,-2.396283229e-06,1.327201550e-07,-3.969296326e-07,4.224319878e-08,4.131996830e-06,3.943941729e-06,2.027608325e-06,-4.127027129e-05,-1.486677492e-05,-6.457694089e-06,-1.854354532e-06,-5.613940094e-06,-8.074295219e-07,-3.401450427e-06,2.557302586e-06,1.923933406e-06,4.874337176e-06,2.529855482e-06,4.268839660e-06,-3.853764561e-06,4.785884191e-06
0.385,-4.348788599e-05,-1.904816243e-05,-1.872372809e-05,-6.309499265e-06,-8.226616640e-06,-3.664617482e-06,-1.101568199e-05,-8.498982673e-06,7.837327305e-07,-1.873663663e-06,1.202798523e-07,-1.166376875e-06,4.429626764e-07,2.852040592e-06,3.166770460e-06,-2.993260160e-07,-4.222264997e-05,-1.566124425e-05,-6.113795838e-06,-7.021773794e-07,-4.564709395e-06,4.672062330e-07,-2.825047657e-06,2.718188526e-06,1.609099669e-06,3.678397627e-06,1.828790838e-06,2.508629781e-06,-1.354107981e-06,-4.993639383e-05
0.39,-4.508820347e-05,-1.968458927e-05,-2.094748043e-05,-6.209351788e-06,-8.910307611e-06,-2.928978794e-06,-1.088293821e-05,-8.083537874e-06,1.345963946e-06,-1.209181407e-06,5.245001703e-07,-1.948735526e-06,1.267223534e-06,2.592405127e-06,3.075600556e-06,-1.599594092e-06,-4.272793252e-05,-1.658326686e-05,-6.412905352e-06,-4.997508682e-07,-3.668132650e-06,1.026505096e-06,5.310287333e-08,2.739872886e-06,1.157371313e-06,3.038883179e-06,1.087866636e-06,1.774120755e-06,-7.775066695e-06,-9.035652169e-06
0.395,-4.634036256e-05,-1.993516589e-05,-2.141720308e-05,-5.978295460e-06,-9.056600008e-06,-2.253009457e-06,-7.621523774e-06,-7.693855165e-06,1.421455223e-06,-9.425133361e-07,8.971612301e-07,-1.912069892e-06,1.893880540e-06,3.580924576e-06,3.361571559e-06,-1.417423065e-06,-4.295003125e-05,-1.729952655e-05,-7.207799603e-06,-1.021539331e-06,-3.770426583e-06,7.008253203e-07,2.952229381e-06,2.775271809e-06,1.078607413e-06,3.070408052e-06,6.742691612e-07,1.987156433e-06,-1.540047414e-05,4.944940790e-05
0.4,-4.678855841e-05,-1.972790020e-05,-2.000239186e-05,-5.296855661e-06,-8.666800475e-06,-1.551773971e-06,-3.852049984e-06,-7.201240737e-06,1.496336837e-06,-1.085656072e-06,1.019835367e-06,-1.266462896e-06,1.803259082e-06,5.088721287e-06,3.592350522e-06,-5.251236178e-07,-4.318638950e-05,-1.726766334e-05,-7.542150078e-06,-1.232094035e-06,-4.418600941e-06,3.019084993e-07,4.349066554e-06,3.172709762e-06,1.860039806e-06,3.544056930e-06,1.024403799e-06,2.749850720e-06,-3.564940808e-06,4.664900411e-06
0.405,-4.626063589e-05,-1.903055088e-05,-1.791335434e-05,-3.992696864e-06,-7.923129605e-06,-3.541005878e-07,-2.243661162e-06,-6.289563185e-06,2.353611341e-06,-1.121828823e-06,1.315261755e-06,-9.690301303e-07,1.203315321e-06,6.338892792e-06,3.786282538e-06,1.362343665e-07,-4.335522971e-05,-1.631152846e-05,-6.553674974e-06,-3.631852761e-07,-4.615487945e-06,6.593417091e-07,3.953374228e-06,4.190558804e-06,3.164200951e-06,4.187682397e-06,2.096721646e-06,3.798137097e-06,-3.068866096e-06,-5.172019424e-05
0.41,-4.514281388e-05,-1.796072268e-05,-1.645032859e-05,-2.627592059e-06,-7.201279560e-06,1.339674114e-06,-3.098719147e-06,-5.034657490e-06,4.116085116e-06,-5.566510026e-07,2.296973514e-06,-1.382161609e-06,8.902913106e-07,7.123397202e-06,4.268345006e-06,4.634895326e-07,-4.305146016e-05,-1.511803854e-05,-4.696854674e-06,1.071116410e-06,-4.295314808e-06,1.542584378e-06,2.050726239e-06,5.533314828e-06,3.850253949e-06,4.683563666e-06,3.093860191e-06,4.834763521e-06,-6.233746524e-06,-3.272298111e-06
0.415,-4.421182701e-05,-1.701447699e-05,-1.602306775e-05,-2.350699183e-06,-6.907355058e-06,2.508063028e-06,-4.031953047e-06,-4.125698379e-06,5.787331928e-06,5.867185462e-07,3.745725138e-06,-1.735028581e-06,1.430856853e-06,7.595336198e-06,5.076240087e-06,9.679685169e-07,-4.217457153e-05,-1.487210087e-05,-3.709896466e-06,1.560681536e-06,-4.544901954e-06,1.823762846e-06,-6.576524511e-07,6.379106960e-06,3.141554012e-06,4.725287601e-06,3.082902173e-06,5.365821533e-06,-1.067773272e-05,5.041782395e-05
0.42,-4.391203400e-05,-1.689624618e-05,-1.615452593e-05,-3.811549643e-06,-7.102997519e-06,1.909209374e-06,-2.585187224e-06,-4.253356931e-06,6.034147446e-06,1.824306933e-06,4.757812442e-06,-1.172136051e-06,2.552979687e-06,7.798098770e-06,5.747230674e-06,1.742077548e-06,-4.132239238e-05,-1.615614853e-05,-4.988595399e-06,1.063822719e-07,-6.225937029e-06,7.871375151e-07,-2.785407106e-06,6.106465575e-06,1.667151076e-06,4.319906630e-06,2.001901581e-06,5.090348702e-06,-3.788201918e-06,2.427580942e-05
0.425,-4.372692787e-05,-1.781778675e-05,-1.604211925e-05,-6.178982557e-06,-7.272094203e-06,-3.700433742e-07,7.790640160e-07,-5.230247614e-06,4.566174831e-06,2.691031550e-06,4.722624914e-06,3.049234445e-09,3.437426659e-06,7.639947154e-06,5.788850252e-06,2.078201345e-06,-4.119373156e-05,-1.815839444e-05,-7.957649296e-06,-2.560522795e-06,-8.699675192e-06,-9.457060221e-07,-2.940688454e-06,4.987707798e-06,9.440467809e-07,3.890245309e-06,8.281948234e-07,4.371813192e-06,4.163538730e-06,-3.440038523e-05
0.43,-4.224751128e-05,-1.884477040e-05,-1.491954813e-05,-7.462279985e-06,-6.604135844e-06,-2.440375906e-06,2.882546485e-06,-5.897366166e-06,2.628070431e-06,3.121087205e-06,4.060146209e-06,6.194998529e-07,3.604627516e-06,7.234108034e-06,5.262051694e-06,1.347850369e-06,-4.128729858e-05,-1.903594681e-05,-1.026621557e-05,-4.397126546e-06,-1.022849566e-05,-1.992329362e-06,-1.305955908e-06,3.994980166e-06,1.682686732e-06,3.821953450e-06,5.617946773e-07,3.988231527e-06,-4.967861328e-07,1.180226317e-05
0.435,-3.764991852e-05,-1.802433363e-05,-1.203541231e-05,-5.999615988e-06,-4.634869781e-06,-2.062674243e-06,1.466760115e-06,-5.079527326e-06,1.971312854e-06,3.412947229e-06,3.808261059e-06,1.695287816e-07,3.422223348e-06,6.997474709e-06,4.774015467e-06,3.867080980e-08,-3.914873560e-05,-1.713051190e-05,-9.705501689e-06,-3.758508403e-06,-9.573567464e-06,-1.594490226e-06,-3.200559894e-09,3.883455282e-06,2.921564428e-06,3.947064773e-06,1.173907352e-06,4.294848595e-06,-1.203118274e-05,7.449286818e-05
0.44,-2.782576972e-05,-1.332534444e-05,-6.585084313e-06,-1.626900288e-06,-1.583154742e-06,1.383606895e-06,-1.766757692e-06,-2.622538625e-06,3.363833913e-06,3.929837762e-06,4.585314312e-06,-4.202636613e-07,3.695822244e-06,7.313518899e-06,4.892339549e-06,-5.014491220e-07,-3.110441557e-05,-1.187553471e-05,-5.824670687e-06,-6.572076492e-07,-6.927610660e-06,-1.471009015e-07,-9.662610553e-07,4.630546658e-06,3.200518241e-06,3.778220319e-06,1.807559172e-06,4.826392342e-06,6.304448113e-06,5.973778493e-05
0.445,-1.015642261e-05,-3.593905407e-06,2.190423093e-06,4.702001791e-06,2.049223155e-06,6.620527516e-06,-2.559023333e-06,6.331239504e-07,6.231960762e-06,4.871495868e-06,6.195834682e-06,1.469043060e-07,4.837921378e-06,8.228317276e-06,5.638480754e-06,5.034729162e-07,-1.400454404e-05,-3.584046947e-06,4.094875385e-07,3.684584577e-06,-3.235614866e-06,1.700946754e-06,-3.334354377e-06,5.873719883e-06,2.504351253e-06,3.385430435e-06,1.972662924e-06,4.885410660e-06,1.410089139e-06,3.389374843e-05
0.45,1.810399020e-05,1.127250355e-05,1.487626809e-05,1.239061880e-05,6.232301044e-06,1.222430377e-05,1.254082689e-06,3.916161494e-06,9.708029440e-06,6.267960384e-06,8.251596379e-06,1.962923195e-06,6.548465443e-06,9.590880976e-06,6.570978466e-06,2.338722554e-06,1.349778325e-05,7.536340526e-06,8.308877580e-06,8.407118277e-06,1.121437879e-06,4.159258382e-06,-3.713027237e-06,7.691807628e-06,2.600517255e-06,3.762567862e-06,2.190473510e-06,4.391174970e-06,-1.562090852e-05,8.291919189e-05
0.455,5.824166249e-05,3.085101930e-05,3.182049607e-05,2.208297752e-05,1.165629220e-05,1.834339211e-05,7.157803507e-06,7.414823695e-06,1.372851111e-05,8.103936573e-06,1.085711614e-05,3.846108544e-06,8.299712126e-06,1.138544323e-05,7.297908535e-06,3.595844415e-06,5.100107242e-05,2.203544337e-05,1.842286601e-05,1.396191469e-05,6.729972099e-06,8.169003790e-06,3.875073407e-07,1.060984633e-05,5.200589961e-06,5.938700511e-06,3.246730781e-06,3.932082435e-06,-9.727187642e-06,1.874093441e-04
0.46,1.083070431e-04,5.458713822e-05,5.293469383e-05,3.490597194e-05,1.910129830e-05,2.632873572e-05,1.068033797e-05,1.199256323e-05,1.887113777e-05,1.042862555e-05,1.441163735e-05,4.840557229e-06,9.987926036e-06,1.372903623e-05,7.866890331e-06,3.817065809e-06,9.708537267e-05,4.079892504e-05,3.165993749e-05,2.145615195e-05,1.434818240e-05,1.418092337e-05,7.672027801e-06,1.475788680e-05,1.001534526e-05,9.691677546e-06,5.059583196e-06,4.039969746e-06,-1.558155739e-05,2.170782099e-04
0.465,1.630122447e-04,8.148617203e-05,7.722508120e-05,5.083824885e-05,2.851424271e-05,3.674301602e-05,1.045434724e-05,1.808379364e-05,2.525472242e-05,1.336681152e-05,1.885003820e-05,5.317088481e-06,1.198065695e-05,1.652647132e-05,8.701275520e-06,4.011079618e-06,1.494370646e-04,6.386943243e-05,4.769131608e-05,3.118632278e-05,2.397257414e-05,2.137347450e-05,1.425049139e-05,1.932881878e-05,1.498319471e-05,1.347242860e-05,6.715660786e-06,4.705307623e-06,-8.251378077e-06,2.407570292e-04
0.47,2.158628525e-04,1.095187604e-04,1.024431912e-04,6.795193177e-05,3.873198649e-05,4.818753428e-05,9.734507957e-06,2.502715521e-05,3.198973314e-05,1.699183635e-05,2.343009779e-05,6.293149846e-06,1.455609338e-05,1.932933117e-05,1.021146915e-05,5.383164522e-06,2.041665557e-04,8.954648762e-05,6.454538903e-05,4.196443291e-05,3.470258375e-05,2.828240707e-05,1.771036236e-05,2.319696580e-05,1.839596346e-05,1.585805332e-05,7.679587948e-06,5.711514042e-06,-1.909835871e-05,3.671509536e-04
0.475,2.618640705e-04,1.356720678e-04,1.254945226e-04,8.335492529e-05,4.812737164e-05,5.835664275e-05,1.256439120e-05,3.151392977e-05,3.789835692e-05,2.108585286e-05,2.740331684e-05,7.983750237e-06,1.743664634e-05,2.169294823e-05,1.242170919e-05,7.813010831e-06,2.555764239e-04,1.145829790e-04,7.981574380e-05,5.187785966e-05,4.522238760e-05,3.403989941e-05,1.932958174e-05,2.603828132e-05,2.041790026e-05,1.695079747e-05,8.542503028e-06,7.135756855e-06,-4.857670840e-05,4.856832381e-04
0.48,2.985876181e-04,1.569574357e-04,1.436610483e-04,9.491153106e-05,5.552905347e-05,6.598776846e-05,1.907926421e-05,3.654130721e-05,4.254176403e-05,2.496492558e-05,3.065477082e-05,9.577597819e-06,1.994685102e-05,2.358415109e-05,1.485964527e-05,9.952573074e-06,2.975699751e-04,1.354257133e-04,9.204809610e-05,5.957673446e-05,5.419690004e-05,3.871184740e-05,2.185076962e-05,2.851656789e-05,2.231521565e-05,1.805599311e-05,1.018980134e-05,9.128949797e-06,-4.162775318e-05,4.943741270e-04
0.485,3.252383816e-04,1.716227621e-04,1.557818537e-04,1.021474053e-04,6.059156075e-05,7.136778646e-05,2.534808921e-05,3.982187874e-05,4.620445012e-05,2.763751327e-05,3.341835541e-05,1.048491764e-05,2.156287225e-05,2.523845068e-05,1.677588075e-05,1.082760597e-05,3.261629572e-04,1.496921624e-04,1.008685734e-04,6.477409455e-05,6.043257639e-05,4.245073667e-05,2.564102268e-05,3.119857134e-05,2.453011375e-05,1.998107484e-05,1.237691936e-05,1.123091359e-05,-3.485979864e-05,4.793262479e-04
0.49,3.414415633e-04,1.795580098e-04,1.623896373e-04,1.057557319e-04,6.347723240e-05,7.501524009e-05,2.765966290e-05,4.143327262e-05,4.891425382e-05,2.836113668e-05,3.548374722e-05,1.122260063e-05,2.223184907e-05,2.660689620e-05,1.759522766e-05,1.095740484e-05,3.410994364e-04,1.569711820e-04,1.061135949e-04,6.769568476e-05,6.320713205e-05,4.473094436e-05,2.804158382e-05,3.352916769e-05,2.605026381e-05,2.198897540e-05,1.363996913e-05,1.236461699e-05,-4.216376428e-05,5.525266170e-04
0.495,3.473126520e-04,1.817152208e-04,1.647363362e-04,1.065497367e-04,6.440025551e-05,7.650546085e-05,2.604772806e-05,4.142760997e-05,4.993221168e-05,2.723553762e-05,3.610709635e-05,1.257719015e-05,2.222301529e-05,2.718185576e-05,1.732528966e-05,1.159998375e-05,3.451391517e-04,1.585481207e-04,1.073986606e-04,6.839680606e-05,6.280494972e-05,4.478972741e-05,2.673400056e-05,3.425645032e-05,2.577460091e-05,2.267111771e-05,1.286959090e-05,1.187911084e-05,-5.156662947e-05,6.202665458e-04
0.5,3.443180956e-04,1.792930778e-04,1.637053478e-04,1.049961884e-04,6.353936409e-05,7.509138329e-05,2.326692501e-05,3.998084122e-05,4.858093753e-05,2.527241685e-05,3.493882053e-05,1.413712742e-05,2.184094679e-05,2.657768293e-05,1.657826118e-05,1.307050294e-05,3.416800303e-04,1.563578327e-04,1.047829848e-04,6.683154227e-05,6.059639487e-05,4.275720550e-05,2.291419079e-05,3.293377392e-05,2.404141857e-05,2.167071644e-05,1.069559982e-05,1.047622755e-05,-4.108618098e-05,5.811004656e-04
0.505,3.352026784e-04,1.734103355e-04,1.596178900e-04,1.015094616e-04,6.124175642e-05,7.123934019e-05,2.122076843e-05,3.773890149e-05,4.544621014e-05,2.374223057e-05,3.280749315e-05,1.435572561e-05,2.134633128e-05,2.520343119e-05,1.610225797e-05,1.424884642e-05,3.327948303e-04,1.519004506e-04,9.954560997e-05,6.347290472e-05,5.818076694e-05,3.995483208e-05,2.024829402e-05,3.069428347e-05,2.234324698e-05,2.015480947e-05,8.912375558e-06,9.697392153e-06,-3.919924106e-05,5.108580143e-04
0.51,3.224719892e-04,1.651951604e-04,1.528844546e-04,9.677270723e-05,5.808878502e-05,6.682816841e-05,1.956355864e-05,3.562656514e-05,4.228676374e-05,2.325637253e-05,3.116450488e-05,1.237227116e-05,2.097906718e-05,2.408140236e-05,1.617428475e-05,1.390840040e-05,3.190974029e-04,1.457837435e-04,9.375937773e-05,5.951527242e-05,5.619543720e-05,3.780250519e-05,2.077757662e-05,2.924618798e-05,2.160073979e-05,1.947391770e-05,8.545140268e-06,1.032355860e-05,-3.865721421e-05,5.300009628e-04
0.515,3.069974000e-04,1.557463385e-04,1.445343158e-04,9.152293267e-05,5.464722179e-05,6.344415881e-05,1.768590487e-05,3.409526148e-05,4.046777277e-05,2.334425260e-05,3.061438470e-05,9.342864247e-06,2.079484193e-05,2.384068849e-05,1.641092010e-05,1.221794676e-05,3.009952092e-04,1.380614025e-04,8.881043496e-05,5.617026569e-05,5.401268084e-05,3.651625341e-05,2.270144962e-05,2.914232149e-05,2.118268768e-05,1.963865818e-05,8.866280687e-06,1.150911198e-05,-5.304807845e-05,5.591971275e-04
0.52,2.884525556e-04,1.458101360e-04,1.358797715e-04,8.608466575e-05,5.116503707e-05,6.077998682e-05,1.654999567e-05,3.264690925e-05,3.961535533e-05,2.287738327e-05,3.021140446e-05,7.394044208e-06,2.040167327e-05,2.398795541e-05,1.617429853e-05,1.053916238e-05,2.797907511e-04,1.289402320e-04,8.442536965e-05,5.369403292e-05,5.071818432e-05,3.509480006e-05,2.265913896e-05,2.927003964e-05,1.987147823e-05,1.939730120e-05,8.516540872e-06,1.173554304e-05,-4.380453454e-05,4.815302672e-04
0.525,2.671478537e-04,1.356021393e-04,1.276361772e-04,8.030170575e-05,4.754023421e-05,5.719429620e-05,1.731548062e-05,3.029844853e-05,3.807452560e-05,2.096911929e-05,2.842756833e-05,7.279987304e-06,1.905784753e-05,2.334525362e-05,1.514438898e-05,9.767286918e-06,2.576274407e-04,1.191672750e-04,7.932499563e-05,5.120551445e-05,4.632926701e-05,3.257639732e-05,1.967235503e-05,2.809630737e-05,1.750268065e-05,1.772383783e-05,7.287201308e-06,1.050452198e-05,-2.845420390e-05,3.987256488e-04
0.53,2.450334224e-04,1.250891664e-04,1.194788150e-04,7.396952808e-05,4.356992971e-05,5.182314369e-05,1.864827074e-05,2.658162070e-05,3.468763533e-05,1.762890417e-05,2.475732211e-05,7.617914971e-06,1.630522780e-05,2.122525482e-05,1.348594681e-05,9.289306946e-06,2.365239339e-04,1.097126012e-04,7.279388692e-05,4.755370614e-05,4.188581786e-05,2.907438777e-05,1.604349763e-05,2.520660362e-05,1.519235222e-05,1.491324409e-05,6.337840175e-06,8.776220602e-06,-3.058447242e-05,4.036367717e-04
0.535,2.245256543e-04,1.143911021e-04,1.105573215e-04,6.720727398e-05,3.922206499e-05,4.565731559e-05,1.712380206e-05,2.203349915e-05,2.990260829e-05,1.374515705e-05,2.019613906e-05,6.739826484e-06,1.260274922e-05,1.807639487e-05,1.154757708e-05,7.881284667e-06,2.174061238e-04,1.010363030e-04,6.543724912e-05,4.238091162e-05,3.831163214e-05,2.546389254e-05,1.436425475e-05,2.148280807e-05,1.388945107e-05,1.212513819e-05,6.629990905e-06,7.696931833e-06,-3.951872551e-05,4.301047437e-04
0.54,2.064184811e-04,1.037593215e-04,1.004722414e-04,6.033024939e-05,3.473376590e-05,4.030639355e-05,1.132829707e-05,1.772335281e-05,2.510129171e-05,1.053382553e-05,1.619314124e-05,4.915277773e-06,9.217117894e-06,1.498115141e-05,9.565228562e-06,5.461884399e-06,1.998213067e-04,9.268954686e-05,5.840737660e-05,3.636513233e-05,3.536458715e-05,2.227482937e-05,1.446356621e-05,1.798447802e-05,1.311097309e-05,1.013267368e-05,7.596583280e-06,7.251047050e-06,-3.801399435e-05,3.550203092e-04
0.545,1.893245909e-04,9.322309167e-05,8.977288888e-05,5.350677879e-05,3.054246585e-05,3.611738962e-05,4.804021223e-06,1.443348202e-05,2.116435273e-05,8.889101283e-06,1.341148381e-05,4.141511382e-06,7.326586338e-06,1.269432149e-05,7.730099987e-06,3.526090825e-06,1.824780676e-04,8.376475547e-05,5.217851309e-05,3.055098658e-05,3.191062752e-05,1.923421262e-05,1.390664768e-05,1.503380885e-05,1.148314976e-05,8.798858559e-06,7.729415887e-06,6.491503872e-06,-2.429089484e-05,2.769981114e-04
0.55,1.713847724e-04,8.258545039e-05,7.957503195e-05,4.679151384e-05,2.711639264e-05,3.209326388e-05,3.330892267e-06,1.234801942e-05,1.801845068e-05,8.976203417e-06,1.163212901e-05,5.678723706e-06,7.156088891e-06,1.127544542e-05,6.387773539e-06,3.638682241e-06,1.643181160e-04,7.389866891e-05,4.636889154e-05,2.559981321e-05,2.725628170e-05,1.595743867e-05,1.112544183e-05,1.247651952e-05,8.461243556e-06,7.659308203e-06,6.335228986e-06,4.951103545e-06,-2.833141345e-05,2.951842842e-04
0.555,1.524007570e-04,7.203322463e-05,7.075716586e-05,4.055547247e-05,2.470623800e-05,2.764723544e-05,8.619801107e-06,1.131843503e-05,1.545591698e-05,1.017975967e-05,1.056406528e-05,8.341830885e-06,7.956943811e-06,1.047173310e-05,5.890547131e-06,5.674950596e-06,1.454892149e-04,6.389357877e-05,4.070984495e-05,2.168919693e-05,2.207852137e-05,1.279171016e-05,7.206213161e-06,1.046293227e-05,5.148492385e-06,6.608555742e-06,4.285189802e-06,3.348114787e-06,-3.184808549e-05,3.249580431e-04
0.56,1.341091748e-04,6.261054929e-05,6.347890017e-05,3.563444582e-05,2.310609392e-05,2.377390337e-05,1.549164837e-05,1.108748187e-05,1.385732370e-05,1.139257322e-05,1.027673911e-05,9.678249595e-06,8.744537613e-06,1.010582465e-05,6.119723172e-06,7.802272522e-06,1.274585247e-04,5.526210840e-05,3.580649789e-05,1.889917902e-05,1.793432935e-05,1.065757313e-05,4.395015139e-06,9.513905722e-06,3.227465757e-06,5.810591997e-06,2.903434344e-06,2.662481512e-06,-2.298564259e-05,2.609347170e-04
0.565,1.184291135e-04,5.562465812e-05,5.730882441e-05,3.270917625e-05,2.165380022e-05,2.194673230e-05,1.643383236e-05,1.114747176e-05,1.371162755e-05,1.155209781e-05,1.071510627e-05,8.638677927e-06,8.966783387e-06,9.950570650e-06,6.295624588e-06,8.205965339e-06,1.119725686e-04,4.900012248e-05,3.260120120e-05,1.736791913e-05,1.586145008e-05,1.004014022e-05,3.568279876e-06,9.744819808e-06,3.250392997e-06,5.184885809e-06,2.456792452e-06,2.805906297e-06,-1.559404436e-05,1.808000793e-04
0.57,1.056525090e-04,5.124696435e-05,5.166272473e-05,3.141461965e-05,1.962539852e-05,2.205437153e-05,9.185661101e-06,1.066566089e-05,1.456976070e-05,1.019636773e-05,1.115681582e-05,6.562035743e-06,8.531542289e-06,9.480615459e-06,5.524326472e-06,6.676745624e-06,9.958378157e-05,4.469878340e-05,3.108745757e-05,1.692558028e-05,1.548447411e-05,1.035018693e-05,3.865151470e-06,1.034621009e-05,4.205504552e-06,4.372000194e-06,2.099366140e-06,2.661341498e-06,-2.055069871e-05,2.110130916e-04
0.575,9.436375260e-05,4.781034369e-05,4.612094602e-05,3.023431011e-05,1.679867603e-05,2.205688023e-05,-7.564375450e-07,8.957432753e-06,1.493310039e-05,7.707502701e-06,1.059122391e-05,5.408789534e-06,7.462823831e-06,8.135030588e-06,3.659751751e-06,4.503279056e-06,8.908398117e-05,4.084822915e-05,2.982440915e-05,1.672396569e-05,1.541223524e-05,1.039523635e-05,4.467146313e-06,1.012969357e-05,4.692941500e-06,3.268932713e-06,1.205023558e-06,1.508809536e-06,-2.956271748e-05,2.501147591e-04
0.58,8.287708414e-05,4.289319126e-05,4.048755683e-05,2.754090348e-05,1.366175265e-05,1.995839179e-05,-5.511312297e-06,6.171529833e-06,1.343414883e-05,5.044814816e-06,8.704545152e-06,5.500412035e-06,5.797883748e-06,5.946774032e-06,1.542567901e-06,3.061924825e-06,7.851227079e-05,3.605701779e-05,2.696793850e-05,1.551927764e-05,1.437597845e-05,9.365286650e-06,5.639750696e-06,8.570907853e-06,4.225441537e-06,2.296357631e-06,2.950033923e-07,3.699524612e-08,-2.153351022e-05,1.891880144e-04
0.585,7.057805653e-05,3.539742405e-05,3.473010373e-05,2.288285612e-05,1.097533312e-05,1.580034791e-05,-2.388597766e-06,3.311827591e-06,1.002462252e-05,3.127047251e-06,6.229393748e-06,5.460474221e-06,3.814619106e-06,3.704314195e-06,2.521819610e-07,2.722830308e-06,6.686888222e-05,3.004942854e-05,2.185344931e-05,1.253722850e-05,1.198380881e-05,7.247577405e-06,7.459569390e-06,6.147305260e-06,3.249375779e-06,1.878292871e-06,3.697171786e-07,-4.038708587e-07,-8.469317872e-06,1.241096945e-04
0.59,5.807355592e-05,2.657858198e-05,2.893734466e-05,1.726585149e-05,9.043464117e-06,1.137047092e-05,4.122394415e-06,1.354437493e-06,5.872976971e-06,2.305194879e-06,4.151268238e-06,4.221700476e-06,2.093179186e-06,2.263956724e-06,1.005507730e-07,2.994173377e-06,5.488545334e-05,2.360270075e-05,1.557173845e-05,8.134342861e-06,8.614728308e-06,4.448754834e-06,8.253143065e-06,3.677866618e-06,2.169468972e-06,1.759508759e-06,1.516494883e-06,5.285640144e-07,-1.793930659e-05,1.471967884e-04
0.595,4.645812780e-05,1.893642738e-05,2.329539994e-05,1.220285158e-05,7.419269784e-06,8.157466804e-06,7.430776986e-06,3.488666216e-07,2.243576356e-06,2.285180339e-06,2.718146187e-06,2.487019914e-06,1.109985601e-06,1.723207414e-06,4.249120455e-07,3.333050818e-06,4.413881245e-05,1.768926803e-05,1.005829352e-05,3.616190223e-06,4.924410665e-06,1.377774411e-06,5.620120258e-06,1.585665974e-06,7.927459828e-07,1.145396932e-06,2.563513977e-06,1.595189473e-06,-2.616058155e-05,1.911704847e-04
0.6,3.658073310e-05,1.406396136e-05,1.803967028e-05,8.551883786e-06,5.383759857e-06,6.101208759e-06,5.139943055e-06,-4.626973049e-07,-2.827575026e-07,2.483469051e-06,1.454752919e-06,1.894265747e-06,7.799657086e-07,1.443963815e-06,3.695834691e-07,3.568656425e-06,3.549268117e-05,1.278033227e-05,6.657616376e-06,3.851416405e-07,1.595353316e-06,-1.446870156e-06,-4.823109045e-07,-5.481082335e-08,-1.121595376e-06,-3.566903907e-07,2.240761336e-06,1.235701639e-06,-1.272822422e-05,1.382637091e-04
0.605,2.868624719e-05,1.154118281e-05,1.339106311e-05,6.217282105e-06,2.730191902e-06,4.404850070e-06,2.778348608e-07,-1.640128891e-06,-1.597666436e-06,2.475263333e-06,8.469822394e-08,3.040160292e-06,5.718883096e-07,9.153138535e-07,-2.355428218e-07,3.683962022e-06,2.843538805e-05,8.858510212e-06,5.398269944e-06,-8.656782009e-07,-6.669186916e-07,-3.186569866e-06,-6.438204462e-06,-9.968807815e-07,-3.056410165e-06,-2.112182234e-06,5.027966337e-07,-7.627084687e-07,-5.573221545e-06,7.483677611e-05
0.61,2.229424443e-05,9.708172319e-06,9.489568176e-06,4.692341982e-06,2.960640453e-08,2.938466079e-06,-2.758242073e-06,-2.877137798e-06,-1.615049064e-06,2.193015033e-06,-9.087939576e-07,4.790784190e-06,1.403272434e-07,3.866427823e-07,-8.460717592e-07,3.530047339e-06,2.177671029e-05,5.787214204e-06,5.289188944e-06,-4.194841718e-07,-1.351144582e-06,-3.105729976e-06,-7.860690579e-06,-8.002576583e-07,-3.908422743e-06,-2.999105597e-06,-1.460088163e-06,-3.059404567e-06,-1.234729556e-05,1.078747983e-04
0.615,1.631771906e-05,7.203853913e-06,6.294155394e-06,3.557782367e-06,-1.932511118e-06,2.203850552e-06,-2.537644885e-06,-3.503979658e-06,-4.847676214e-07,1.787879901e-06,-8.813216993e-07,5.547172479e-06,-3.064017512e-07,4.551408718e-07,-9.725527828e-07,2.907510104e-06,1.474051866e-05,3.403368438e-06,5.054089617e-06,6.843826863e-07,-6.719830818e-07,-1.471654579e-06,-4.093138054e-06,4.695486961e-07,-3.145227914e-06,-2.598516386e-06,-2.434814578e-06,-4.167834702e-06,-1.688753183e-05,1.552441966e-04
0.62,9.641923067e-06,3.709242046e-06,3.476176101e-06,2.416932247e-06,-2.980272105e-06,2.054692328e-06,-1.073310382e-06,-3.529399399e-06,8.566326709e-07,1.337645635e-06,-6.113334732e-08,4.778860666e-06,-4.246067158e-07,1.100876241e-06,-8.266093998e-07,1.791715657e-06,7.352739453e-06,1.298665522e-06,3.721518082e-06,1.115964321e-06,1.887172428e-07,1.656327253e-07,7.594694664e-07,1.749890796e-06,-1.641594811e-06,-1.720971709e-06,-2.236730368e-06,-3.856959621e-06,-1.212538849e-05,1.023271617e-04
0.625,1.989144334e-06,-3.983617161e-07,4.811627262e-07,7.132367647e-07,-3.758844167e-06,1.235269529e-06,-1.069446144e-06,-3.867876868e-06,9.134094638e-07,6.782376330e-07,3.329306136e-07,3.099700350e-06,-4.430315388e-07,1.399624955e-06,-1.142000106e-06,3.163982162e-07,8.538085675e-08,-1.159087456e-06,9.788619399e-07,-1.283844955e-07,-2.502779869e-07,6.128842558e-09,1.872067052e-06,1.579734193e-06,-1.102790628e-06,-1.680272428e-06,-1.592412218e-06,-3.116283711e-06,-3.924198268e-06,3.483192752e-05
0.63,-5.712596174e-06,-4.587176317e-06,-3.099285270e-06,-1.935954597e-06,-5.078300912e-06,-1.284527418e-06,-3.402011472e-06,-5.369529728e-06,-1.143177546e-06,-4.752021885e-07,-8.226077688e-07,1.195332402e-06,-1.171752715e-06,3.647783224e-07,-2.428045221e-06,-1.400578911e-06,-6.528526374e-06,-4.298599458e-06,-2.655951924e-06,-3.088668254e-06,-2.514985422e-06,-2.441491693e-06,-1.370426921e-06,-6.249968023e-07,-2.519228932e-06,-3.090549280e-06,-1.228009939e-06,-2.970197423e-06,-7.044930365e-06,7.238303379e-05
0.635,-1.203980123e-05,-8.275491059e-06,-7.056178693e-06,-5.126163183e-06,-7.051239108e-06,-4.795573383e-06,-6.871436371e-06,-7.779925381e-06,-4.511316429e-06,-2.195490721e-06,-3.425856704e-06,-7.772504241e-07,-3.109535319e-06,-2.001130534e-06,-4.481798366e-06,-3.220204218e-06,-1.197855337e-05,-7.658336436e-06,-6.039464049e-06,-6.640826429e-06,-5.548328898e-06,-5.873359365e-06,-5.021531188e-06,-3.981922021e-06,-5.222903742e-06,-5.405751593e-06,-1.258588902e-06,-3.570988636e-06,-1.670208910e-05,1.196910891e-04
0.64,-1.637091332e-05,-1.086748111e-05,-1.052651803e-05,-7.710481958e-06,-8.943690960e-06,-7.308519490e-06,-9.484439079e-06,-9.924033005e-06,-7.342232789e-06,-4.104667315e-06,-6.223192444e-06,-2.679785437e-06,-5.644665867e-06,-4.659766691e-06,-6.608999633e-06,-4.746895908e-06,-1.593330257e-05,-1.028854378e-05,-8.143749505e-06,-9.191005256e-06,-7.569418995e-06,-8.404630932e-06,-5.239714344e-06,-6.957864443e-06,-7.552973321e-06,-7.551241657e-06,-1.401393584e-06,-4.404550490e-06,-1.184465643e-05,6.849030066e-05
0.645,-1.952182452e-05,-1.223049768e-05,-1.267616219e-05,-8.843628339e-06,-9.950974429e-06,-7.721395465e-06,-9.755581719e-06,-1.097561107e-05,-8.469713400e-06,-5.538813538e-06,-8.005203108e-06,-3.848944861e-06,-7.435771165e-06,-6.572465517e-06,-8.236630775e-06,-5.380270109e-06,-1.869330137e-05,-1.174041751e-05,-8.917433377e-06,-9.976511972e-06,-7.790619788e-06,-9.323627430e-06,-2.710243980e-06,-8.770949610e-06,-8.479744132e-06,-8.902479901e-06,-1.557681076e-06,-5.080782947e-06,-4.689192361e-06,4.628106629e-06
0.65,-2.303820441e-05,-1.320740053e-05,-1.360290357e-05,-9.048058315e-06,-1.012789210e-05,-7.147528272e-06,-7.546342749e-06,-1.136462674e-05,-8.491076714e-06,-6.098604219e-06,-8.682142819e-06,-3.633228422e-06,-7.769645356e-06,-7.688770457e-06,-9.309273866e-06,-4.894729476e-06,-2.138334056e-05,-1.270217197e-05,-9.439577030e-06,-9.844306872e-06,-7.284424480e-06,-9.619277442e-06,-1.806519399e-06,-9.928665127e-06,-8.549104661e-06,-9.686440456e-06,-2.035668638e-06,-5.704710724e-06,-1.143318034e-05,4.621614696e-05
0.655,-2.781860482e-05,-1.523365984e-05,-1.447920633e-05,-9.966909616e-06,-1.046125209e-05,-7.729884119e-06,-4.442269478e-06,-1.227056237e-05,-9.044262620e-06,-6.117359122e-06,-9.229164666e-06,-2.459999314e-06,-7.449926557e-06,-8.856609639e-06,-1.019874008e-05,-3.993018740e-06,-2.523732449e-05,-1.444145171e-05,-1.102978176e-05,-1.057144675e-05,-7.961211757e-06,-1.079100513e-05,-5.458764467e-06,-1.142877667e-05,-9.205411412e-06,-1.057571915e-05,-3.202395403e-06,-6.550412232e-06,-1.255359045e-05,9.674932190e-05
0.66,-3.338649917e-05,-1.902155777e-05,-1.654394873e-05,-1.276668554e-05,-1.189558770e-05,-1.029335282e-05,-3.113062632e-06,-1.427493979e-05,-1.108761107e-05,-6.492162717e-06,-1.068533378e-05,-1.860404860e-06,-8.105809764e-06,-1.082562624e-05,-1.130482047e-05,-4.003487971e-06,-3.038498172e-05,-1.748740077e-05,-1.403247288e-05,-1.315766930e-05,-1.054797518e-05,-1.321504645e-05,-1.157479605e-05,-1.357095847e-05,-1.118797302e-05,-1.195441293e-05,-4.959220723e-06,-7.593042815e-06,-6.618098988e-06,4.657696679e-05
0.665,-3.839597659e-05,-2.359986345e-05,-1.981149813e-05,-1.675318969e-05,-1.424104372e-05,-1.356207503e-05,-5.316142168e-06,-1.667210015e-05,-1.398509496e-05,-7.855897637e-06,-1.319240291e-05,-3.015414233e-06,-1.048503690e-05,-1.340797376e-05,-1.265987310e-05,-5.697630366e-06,-3.546741661e-05,-2.091658441e-05,-1.743180916e-05,-1.670178339e-05,-1.363040668e-05,-1.570474955e-05,-1.505531954e-05,-1.560749866e-05,-1.360805060e-05,-1.347139132e-05,-6.570378091e-06,-8.441533465e-06,-4.783952364e-06,-1.085191206e-05
0.67,-4.174496084e-05,-2.693771321e-05,-2.289618399e-05,-1.975318158e-05,-1.613858776e-05,-1.570002447e-05,-9.913303524e-06,-1.813536814e-05,-1.617917005e-05,-9.812595343e-06,-1.583020171e-05,-5.338070317e-06,-1.348448243e-05,-1.555519435e-05,-1.376373310e-05,-8.306281935e-06,-3.877005201e-05,-2.306586216e-05,-1.968082218e-05,-1.905059272e-05,-1.484889218e-05,-1.658779370e-05,-1.310830819e-05,-1.643924496e-05,-1.462462680e-05,-1.419070310e-05,-7.058252049e-06,-8.622710124e-06,-5.643259822e-06,2.296024860e-05
0.675,-4.328053417e-05,-2.773342782e-05,-2.432069493e-05,-2.003403455e-05,-1.626682082e-05,-1.617137175e-05,-1.327227107e-05,-1.794202545e-05,-1.654480865e-05,-1.109163008e-05,-1.725601384e-05,-6.840255498e-06,-1.500298397e-05,-1.614421000e-05,-1.379327260e-05,-9.875995720e-06,-3.986140475e-05,-2.302287315e-05,-1.994158689e-05,-1.866418296e-05,-1.313074167e-05,-1.514629893e-05,-7.982379046e-06,-1.552257362e-05,-1.308636580e-05,-1.325665022e-05,-5.925611225e-06,-7.857301371e-06,-1.433401567e-05,8.071192114e-05
0.68,-4.370450982e-05,-2.657731736e-05,-2.402853898e-05,-1.788793612e-05,-1.466714455e-05,-1.579634651e-05,-1.247603755e-05,-1.649727809e-05,-1.508322954e-05,-1.066144059e-05,-1.663597739e-05,-6.090300513e-06,-1.383967285e-05,-1.473939585e-05,-1.218675363e-05,-8.869042148e-06,-3.999098077e-05,-2.144830880e-05,-1.861434867e-05,-1.591083256e-05,-9.736156699e-06,-1.211708787e-05,-4.319014617e-06,-1.317418693e-05,-9.618271828e-06,-1.065602393e-05,-3.658897008e-06,-6.183964252e-06,-1.052567217e-05,3.125384751e-05
0.685,-4.403131292e-05,-2.530273707e-05,-2.345157293e-05,-1.533419050e-05,-1.282882764e-05,-1.534035776e-05,-8.405727928e-06,-1.482812418e-05,-1.262950312e-05,-8.799202192e-06,-1.426827187e-05,-3.704073655e-06,-1.079166030e-05,-1.185439693e-05,-9.271453371e-06,-5.596605803e-06,-4.078312514e-05,-1.999832229e-05,-1.685488317e-05,-1.263412616e-05,-7.109819232e-06,-9.035436396e-06,-4.322416722e-06,-1.026140883e-05,-6.199859865e-06,-7.488639395e-06,-1.536450463e-06,-4.025234646e-06,-7.086246002e-06,-3.049209458e-05
0.69,-4.507471673e-05,-2.528421175e-05,-2.400337950e-05,-1.433218218e-05,-1.237401417e-05,-1.470937919e-05,-5.161429204e-06,-1.378444564e-05,-1.024061406e-05,-6.990689846e-06,-1.147889941e-05,-1.751131664e-06,-7.935318683e-06,-8.714951251e-06,-6.341928301e-06,-2.104534830e-06,-4.266847816e-05,-1.999617766e-05,-1.573494776e-05,-1.059903491e-05,-6.764017614e-06,-7.211495560e-06,-6.033439233e-06,-7.778105092e-06,-4.672007902e-06,-5.386815408e-06,-7.773250556e-07,-2.172315261e-06,-6.101174692e-06,1.379488917e-05
0.695,-4.714255745e-05,-2.648203417e-05,-2.566037790e-05,-1.532212060e-05,-1.363074886e-05,-1.369177590e-05,-5.958708724e-06,-1.370677727e-05,-8.827122508e-06,-6.636417717e-06,-9.778530653e-06,-1.719916337e-06,-6.877352139e-06,-6.703600635e-06,-4.887886415e-06,-5.517069569e-07,-4.476235016e-05,-2.158272828e-05,-1.578333519e-05,-1.037823892e-05,-8.275848486e-06,-7.138422134e-06,-6.157815733e-06,-6.576784428e-06,-5.483152158e-06,-5.396107833e-06,-1.684776605e-06,-1.495027357e-06,-1.481063724e-05,6.701023666e-05
0.7,-4.994847114e-05,-2.802357980e-05,-2.721849992e-05,-1.735050402e-05,-1.551222689e-05,-1.291088209e-05,-9.768579047e-06,-1.455000033e-05,-8.930458983e-06,-7.800711133e-06,-9.835291752e-06,-3.194854290e-06,-7.652330729e-06,-6.668534654e-06,-5.472008397e-06,-1.532447653e-06,-4.618213655e-05,-2.391055527e-05,-1.699343055e-05,-1.147911609e-05,-1.014485458e-05,-8.483178152e-06,-3.881438079e-06,-7.114902381e-06,-7.625128041e-06,-7.211919128e-06,-3.530779523e-06,-2.388773460e-06,-8.331079215e-06,2.332433279e-05
0.705,-5.277815502e-05,-2.934466250e-05,-2.783616588e-05,-1.927528557e-05,-1.672529160e-05,-1.336503035e-05,-1.249392003e-05,-1.599845252e-05,-1.042326925e-05,-9.264568839e-06,-1.109438235e-05,-4.518250219e-06,-9.116573819e-06,-8.400067070e-06,-7.266119890e-06,-3.803077313e-06,-4.712766419e-05,-2.592627142e-05,-1.892678267e-05,-1.311257738e-05,-1.131870513e-05,-1.037690935e-05,-1.513325730e-06,-9.128569025e-06,-9.595943920e-06,-9.462494887e-06,-5.260834163e-06,-4.383894524e-06,-1.329068461e-07,-3.352858994e-05
0.71,-5.486905703e-05,-3.048503433e-05,-2.792573933e-05,-2.059679544e-05,-1.693012025e-05,-1.497949482e-05,-1.147614066e-05,-1.742742631e-05,-1.237911528e-05,-9.801030127e-06,-1.238468137e-05,-4.549199298e-06,-1.016194214e-05,-1.067882522e-05,-8.753600572e-06,-5.513150830e-06,-4.841684810e-05,-2.696574944e-05,-2.075562855e-05,-1.460546148e-05,-1.176823844e-05,-1.179550157e-05,-1.749563219e-06,-1.152647260e-05,-1.044639128e-05,-1.078630350e-05,-6.293349264e-06,-6.362697829e-06,-2.972393140e-06,4.727711149e-06
0.715,-5.575536400e-05,-3.140034290e-05,-2.829530708e-05,-2.122781472e-05,-1.665078752e-05,-1.615704028e-05,-8.277557652e-06,-1.801847792e-05,-1.350921327e-05,-9.305133923e-06,-1.290058011e-05,-3.618894982e-06,-1.045673188e-05,-1.200677226e-05,-8.965277324e-06,-5.691922980e-06,-5.010518934e-05,-2.685483739e-05,-2.147684712e-05,-1.529211954e-05,-1.183202211e-05,-1.198457590e-05,-4.920498256e-06,-1.284580821e-05,-1.012037116e-05,-1.070710949e-05,-6.648676679e-06,-7.284838548e-06,-2.034375166e-05,6.193631267e-05
0.72,-5.534730691e-05,-3.143543457e-05,-2.872714015e-05,-2.089174412e-05,-1.627182849e-05,-1.521268771e-05,-6.627044668e-06,-1.720574783e-05,-1.298779653e-05,-8.613835546e-06,-1.256873810e-05,-2.861294058e-06,-1.018616318e-05,-1.153915896e-05,-8.058453202e-06,-4.676937662e-06,-5.097704454e-05,-2.574328040e-05,-2.043262613e-05,-1.451464780e-05,-1.143763599e-05,-1.079680249e-05,-8.969775804e-06,-1.211211972e-05,-9.057305709e-06,-9.590948896e-06,-6.452849979e-06,-6.796189373e-06,-9.277525026e-07,1.471284997e-05
0.725,-5.383445493e-05,-2.983396068e-05,-2.801858185e-05,-1.915951928e-05,-1.550686118e-05,-1.218146451e-05,-8.033314042e-06,-1.512043804e-05,-1.093569808e-05,-8.342595138e-06,-1.156059636e-05,-2.877911362e-06,-9.409934390e-06,-9.486412761e-06,-6.766009222e-06,-3.343998882e-06,-4.969328823e-05,-2.396994269e-05,-1.780167139e-05,-1.209022531e-05,-1.020021897e-05,-8.697686580e-06,-1.153048921e-05,-9.453222447e-06,-7.621177366e-06,-7.965844116e-06,-5.574608146e-06,-5.230916146e-06,-1.787992396e-06,-3.933622867e-05
0.73,-5.166444835e-05,-2.675190698e-05,-2.565943456e-05,-1.613967762e-05,-1.400963055e-05,-8.888134079e-06,-1.022778515e-05,-1.255804548e-05,-8.128535871e-06,-8.153591860e-06,-9.764476230e-06,-3.215570628e-06,-7.923124052e-06,-6.730841428e-06,-5.471163357e-06,-2.147262112e-06,-4.639053887e-05,-2.199842630e-05,-1.455919939e-05,-8.743349758e-06,-8.144565758e-06,-6.391918365e-06,-1.156479975e-05,-5.949198000e-06,-5.897266863e-06,-6.058591792e-06,-3.896831424e-06,-3.166466832e-06,-1.254261862e-05,2.093285797e-06
0.735,-4.954681659e-05,-2.347834466e-05,-2.299119584e-05,-1.284968061e-05,-1.221926984e-05,-7.159733784e-06,-1.012978560e-05,-1.044687228e-05,-5.323918206e-06,-7.298336275e-06,-7.040023111e-06,-3.046978160e-06,-5.741747202e-06,-4.130539803e-06,-3.994479571e-06,-9.735501568e-07,-4.288004736e-05,-2.029883684e-05,-1.184310344e-05,-5.794754436e-06,-6.015023853e-06,-4.381275282e-06,-9.342390821e-06,-2.859680305e-06,-3.926232340e-06,-3.956792298e-06,-1.829059976e-06,-1.087690901e-06,-1.083049687e-05,6.608442198e-05
0.74,-4.812856371e-05,-2.139301746e-05,-2.200519826e-05,-1.056378652e-05,-1.113350830e-05,-7.165633891e-06,-7.612671097e-06,-9.276507677e-06,-2.903020507e-06,-5.719273031e-06,-3.931574877e-06,-2.133543920e-06,-3.506364099e-06,-2.146574824e-06,-2.226268319e-06,2.334096128e-07,-4.105134813e-05,-1.912779941e-05,-1.022001844e-05,-4.185497521e-06,-4.688380522e-06,-2.811472523e-06,-5.697803371e-06,-8.654254903e-07,-2.005557472e-06,-1.964194128e-06,-2.768096917e-07,5.871416881e-07,-8.449893412e-06,2.201616288e-05
0.745,-4.734775091e-05,-2.065321520e-05,-2.286606793e-05,-9.658700428e-06,-1.109810508e-05,-7.574875363e-06,-5.521500157e-06,-8.906628909e-06,-9.761644928e-07,-4.306527736e-06,-1.693449754e-06,-1.022721551e-06,-2.163193120e-06,-9.076511881e-07,-6.610804904e-07,1.012576620e-06,-4.104637526e-05,-1.832450126e-05,-9.409733291e-06,-3.735245011e-06,-4.312380173e-06,-1.611509618e-06,-1.738048127e-06,1.592510495e-07,-6.509683040e-07,-5.411130080e-07,7.387537269e-08,1.422455285e-06,1.378393045e-06,-3.882862692e-05
0.75,-4.620412033e-05,-2.002234040e-05,-2.324711398e-05,-9.206872885e-06,-1.115286355e-05,-7.072819587e-06,-6.056959527e-06,-8.772657814e-06,4.640753773e-07,-3.931962907e-06,-1.212531829e-06,-4.167443424e-07,-2.138668713e-06,-3.397515829e-07,-2.352970392e-08,7.665015713e-07,-4.111144571e-05,-1.733245911e-05,-8.605908034e-06,-3.379626355e-06,-4.131498087e-06,-6.407093180e-07,1.228005488e-06,8.293621559e-07,-1.764815933e-07,1.395150112e-07,-5.839743043e-07,1.188227389e-06,-7.925581313e-06,5.150197671e-06
0.755,-4.363566907e-05,-1.813402603e-05,-2.078711745e-05,-7.888465741e-06,-9.995973746e-06,-5.460639905e-06,-8.042288916e-06,-8.257659336e-06,1.584885058e-06,-4.399223911e-06,-1.939267735e-06,-5.135700830e-07,-2.876887510e-06,-1.349919886e-07,-3.707139664e-07,-4.236749469e-07,-3.938378874e-05,-1.558575840e-05,-7.113072252e-06,-2.175026473e-06,-3.221300414e-06,2.903454015e-07,2.334092197e-06,1.725963290e-06,-2.962365358e-07,4.169287340e-07,-1.332768094e-06,2.290768663e-07,-8.775122697e-06,6.194479135e-05
0.76,-3.994987541e-05,-1.499767676e-05,-1.614508961e-05,-5.393495464e-06,-7.612146932e-06,-3.424574094e-06,-8.394742203e-06,-7.056686435e-06,2.668500231e-06,-4.612086408e-06,-2.259549972e-06,-9.819423100e-07,-3.303757267e-06,1.997463512e-07,-8.307871215e-07,-1.597502506e-06,-3.590780284e-05,-1.311961312e-05,-4.903372786e-06,-1.563617823e-07,-1.427172631e-06,1.342032132e-06,2.027299287e-06,2.998281896e-06,-2.400261337e-07,7.855526923e-07,-1.375612336e-06,-5.805167283e-07,-1.178721738e-05,1.653262969e-05
0.765,-3.715767847e-05,-1.222495826e-05,-1.290052418e-05,-2.882851489e-06,-5.554464168e-06,-1.681345045e-06,-5.917144239e-06,-5.416004705e-06,3.749084797e-06,-3.826228165e-06,-1.175254060e-06,-1.429850576e-06,-2.817083004e-06,9.627096395e-07,-4.617718935e-07,-1.755011512e-06,-3.285426870e-05,-1.089631606e-05,-2.760299948e-06,1.663329890e-06,3.751689127e-07,2.393671725e-06,1.852565107e-06,4.264532670e-06,5.738315428e-07,1.330633615e-06,-7.171341547e-07,-5.105518498e-07,-2.200013512e-06,-3.650649628e-05
0.77,-3.731493857e-05,-1.164380909e-05,-1.388780389e-05,-1.967542676e-06,-5.309972792e-06,-5.592062153e-07,-2.759374037e-06,-4.057126199e-06,4.329095152e-06,-2.522457984e-06,5.273185352e-07,-1.747636475e-06,-1.815515740e-06,1.840510436e-06,6.609683620e-07,-9.200428415e-07,-3.257808098e-05,-1.030456695e-05,-1.819497988e-06,2.096990748e-06,9.530065954e-07,2.916342853e-06,2.871041130e-06,4.866046545e-06,1.899722782e-06,1.619869235e-06,-5.131005987e-08,2.881366990e-07,-8.812527655e-06,3.385462600e-06
0.775,-4.024693536e-05,-1.354189345e-05,-1.788040790e-05,-3.166327660e-06,-6.550888949e-06,-1.206299860e-07,-1.868902332e-06,-3.683014190e-06,3.764778303e-06,-1.849415371e-06,1.074052691e-06,-2.014142681e-06,-1.226540358e-06,2.061722530e-06,1.421672420e-06,-2.009310241e-07,-3.526356377e-05,-1.194092235e-05,-2.670250439e-06,7.496949161e-07,-2.144103224e-07,2.363188114e-06,4.350791437e-06,4.383464826e-06,2.783669490e-06,1.198016756e-06,-5.616748244e-08,8.274599474e-07,-1.059067472e-05,6.074503745e-05
0.78,-4.323461022e-05,-1.623549339e-05,-2.059715140e-05,-5.362908653e-06,-7.424691955e-06,-2.618423521e-07,-3.635512495e-06,-4.374026218e-06,2.122294906e-06,-2.283740890e-06,-3.017866396e-07,-2.243903518e-06,-1.528786292e-06,1.189082497e-06,8.499127462e-07,-6.427998453e-07,-3.846434232e-05,-1.470845204e-05,-4.684101363e-06,-1.562699942e-06,-2.355184935e-06,8.799227695e-07,4.463483867e-06,3.083203260e-06,2.480896876e-06,1.431610216e-07,-7.819052469e-07,2.450537647e-07,-2.592714017e-06,1.398120074e-05
0.785,-4.348402281e-05,-1.748455122e-05,-1.925691383e-05,-6.805219758e-06,-6.703192061e-06,-6.355816253e-07,-5.715744876e-06,-5.473445039e-06,4.738019043e-07,-3.108589762e-06,-2.423192217e-06,-2.381416026e-06,-2.293281802e-06,-2.430582465e-07,-7.530120721e-07,-2.052054945e-06,-3.918172976e-05,-1.637319262e-05,-6.325381777e-06,-3.297532766e-06,-3.877856102e-06,-4.867964545e-07,2.451163783e-06,1.856646881e-06,1.303634659e-06,-9.124613092e-07,-1.591341420e-06,-1.193324531e-06,9.458144779e-07,-4.620318120e-05
0.79,-4.101648355e-05,-1.649475900e-05,-1.566409461e-05,-6.655649840e-06,-5.290473247e-06,-8.080020945e-07,-5.944067778e-06,-6.192852561e-06,1.093594457e-08,-3.339679555e-06,-3.425977065e-06,-2.513851122e-06,-2.714506299e-06,-1.085889191e-06,-2.024646052e-06,-3.113462793e-06,-3.665782175e-05,-1.546020386e-05,-6.421930993e-06,-3.332789692e-06,-3.654058525e-06,-6.047877909e-07,-2.276354145e-07,1.542784283e-06,4.326593142e-07,-1.305862670e-06,-1.611167394e-06,-2.131400690e-06,-4.548656052e-06,-1.040347498e-07
0.795,-3.871127540e-05,-1.457268887e-05,-1.419148862e-05,-5.581398981e-06,-5.192977807e-06,-7.424610948e-07,-4.565388268e-06,-6.374164735e-06,7.631883159e-07,-2.980348284e-06,-2.822192940e-06,-2.909436975e-06,-2.549286659e-06,-7.345512077e-07,-1.914383035e-06,-2.750699331e-06,-3.316069460e-05,-1.279363324e-05,-5.287514269e-06,-1.952779080e-06,-2.089560163e-06,5.304561932e-07,-1.283335162e-06,2.136055906e-06,7.370257529e-07,-8.930223759e-07,-3.750285899e-07,-1.318856127e-06,-9.357503081e-06,5.603042159e-05
0.8,-3.913160961e-05,-1.373628634e-05,-1.676616732e-05,-4.897321676e-06,-7.051008073e-06,-1.000853153e-06,-3.256372675e-06,-6.575016242e-06,1.394962567e-06,-3.072464227e-06,-2.033679965e-06,-3.708924749e-06,-2.450795805e-06,1.032183303e-07,-7.674710722e-07,-1.292974823e-06,-3.182390948e-05,-1.094975937e-05,-4.472637341e-06,-7.622995729e-07,-9.347547440e-07,1.503900843e-06,-6.590910061e-08,2.644336012e-06,1.781647532e-06,-1.635328912e-07,1.717507260e-06,1.113113654e-06,-9.381834072e-06,1.175398027e-05
0.805,-4.150010817e-05,-1.465350673e-05,-2.051959516e-05,-5.259518134e-06,-9.165503773e-06,-2.203764787e-06,-2.661540453e-06,-7.366938432e-06,4.641669178e-07,-4.448818023e-06,-2.822881597e-06,-4.625810315e-06,-3.333080104e-06,-6.123325383e-08,-1.999022810e-09,-1.933815997e-07,-3.354816598e-05,-1.186921044e-05,-5.237290216e-06,-1.405005687e-06,-1.800003036e-06,6.433095510e-07,1.704702605e-06,1.849546208e-06,2.132695776e-06,8.522625137e-08,3.476778051e-06,3.546995301e-06,-6.747174471e-06,-4.585308109e-05
0.81,-4.235315634e-05,-1.606411848e-05,-2.088838596e-05,-6.284064452e-06,-9.308711336e-06,-4.284099577e-06,-1.871369529e-06,-8.672806313e-06,-2.174164712e-06,-6.657529694e-06,-5.435081862e-06,-5.120743426e-06,-5.423355348e-06,-2.116866328e-06,-7.809633711e-07,-6.216246341e-07,-3.610366304e-05,-1.494696694e-05,-7.303083549e-06,-4.133616734e-06,-4.644917697e-06,-2.408067132e-06,1.828350801e-06,-6.586025661e-07,7.271869792e-07,-7.942347202e-07,3.651638265e-06,4.106810731e-06,-1.951684169e-05,-4.604551053e-06
0.815,-3.941043849e-05,-1.633328033e-05,-1.678648777e-05,-7.348304203e-06,-7.319864456e-06,-6.498300040e-06,-3.704658023e-07,-9.939148351e-06,-5.350202016e-06,-8.338837201e-06,-8.477578325e-06,-4.966010990e-06,-7.961963057e-06,-5.504585733e-06,-3.058473954e-06,-2.434160813e-06,-3.646489033e-05,-1.764966972e-05,-9.268734833e-06,-7.610469707e-06,-7.735958425e-06,-6.316459822e-06,1.707717004e-08,-4.125468010e-06,-2.101918646e-06,-2.972024233e-06,1.887817459e-06,2.119228378e-06,-7.380083896e-06,5.488913301e-05
0.82,-3.441418927e-05,-1.543000649e-05,-1.205040119e-05,-8.476870626e-06,-5.462887025e-06,-8.237545259e-06,5.065743657e-07,-1.089233867e-05,-7.853943186e-06,-8.624682940e-06,-1.045494561e-05,-4.553907899e-06,-9.811195095e-06,-8.708843496e-06,-5.810403277e-06,-4.500829855e-06,-3.402284361e-05,-1.808639542e-05,-1.022252443e-05,-1.017659575e-05,-9.211773077e-06,-9.258700236e-06,-1.841718916e-06,-7.246315701e-06,-4.988203680e-06,-6.016086475e-06,-9.088621221e-07,-1.455669654e-06,1.840277523e-05,1.317208824e-05
0.825,-3.159569103e-05,-1.502032505e-05,-1.147194579e-05,-1.015497502e-05,-6.039517107e-06,-9.553130892e-06,-1.059269543e-06,-1.184807264e-05,-9.403956061e-06,-7.955398654e-06,-1.104858814e-05,-4.495604321e-06,-1.032294345e-05,-1.047572352e-05,-7.946784979e-06,-5.825873380e-06,-3.124977025e-05,-1.678115341e-05,-1.063468129e-05,-1.125258931e-05,-8.713947370e-06,-1.038268517e-05,-1.719802773e-06,-9.080876460e-06,-6.793593890e-06,-8.968152092e-06,-3.249723585e-06,-4.850032724e-06,5.207603949e-06,-4.437814532e-05
0.83,-3.324370512e-05,-1.639983614e-05,-1.570833892e-05,-1.224273590e-05,-8.881860954e-06,-1.061056049e-05,-4.783730969e-06,-1.308434043e-05,-1.020941982e-05,-7.448105544e-06,-1.079237198e-05,-4.897503302e-06,-9.658119675e-06,-1.050003581e-05,-8.886603058e-06,-6.179198899e-06,-3.100920978e-05,-1.573279348e-05,-1.141321673e-05,-1.135367770e-05,-7.417952415e-06,-1.002302247e-05,5.063588534e-07,-9.382992794e-06,-7.361737697e-06,-1.064745838e-05,-4.217352132e-06,-6.686720314e-06,-3.783964018e-06,-5.509917035e-06
0.835,-3.718065471e-05,-1.855128852e-05,-2.050887316e-05,-1.336936598e-05,-1.145417554e-05,-1.079111615e-05,-8.003330741e-06,-1.404629863e-05,-9.907262700e-06,-7.656414203e-06,-9.883176462e-06,-5.188020522e-06,-8.419819186e-06,-9.115138000e-06,-8.476509707e-06,-5.787579673e-06,-3.334679247e-05,-1.590142384e-05,-1.227394458e-05,-1.082384414e-05,-6.530808766e-06,-8.712728660e-06,3.030470180e-06,-8.232593951e-06,-7.103566209e-06,-1.016558082e-05,-3.979954537e-06,-6.572428532e-06,-5.927961560e-06,4.790148129e-05
0.84,-3.893626760e-05,-1.873035519e-05,-2.093244220e-05,-1.181446415e-05,-1.134080166e-05,-8.866951142e-06,-8.434794572e-06,-1.352592784e-05,-7.519319456e-06,-8.170954524e-06,-7.839140520e-06,-4.803083881e-06,-7.139765461e-06,-6.696519149e-06,-6.794247799e-06,-4.838726565e-06,-3.526726715e-05,-1.606345471e-05,-1.158410047e-05,-9.008761936e-06,-6.022836522e-06,-6.436701465e-06,3.824798712e-06,-5.684900490e-06,-6.201278156e-06,-7.467372496e-06,-3.226074322e-06,-4.923495718e-06,1.651246122e-06,7.141332572e-06
0.845,-3.627655561e-05,-1.527993068e-05,-1.603358920e-05,-7.242392312e-06,-8.388006482e-06,-4.441937517e-06,-6.683986340e-06,-1.086413916e-05,-2.765712896e-06,-8.373843049e-06,-4.474324748e-06,-3.988600693e-06,-6.127162531e-06,-3.629453697e-06,-4.300616254e-06,-3.581258799e-06,-3.383308741e-05,-1.439137785e-05,-8.189221888e-06,-5.143945438e-06,-5.036682828e-06,-3.127979327e-06,2.216015694e-06,-2.027375039e-06,-4.559891925e-06,-3.564897260e-06,-2.303268368e-06,-2.551543740e-06,4.277729411e-06,-5.058532231e-05
0.85,-3.128336026e-05,-9.760151760e-06,-9.425206700e-06,-1.545028620e-06,-4.461629416e-06,9.137056950e-07,-5.310387359e-06,-6.919325693e-06,2.808377753e-06,-8.260220499e-06,-8.611113921e-07,-3.712514501e-06,-5.617077090e-06,-7.230807199e-07,-2.025777701e-06,-2.726248357e-06,-2.932679972e-05,-1.092963774e-05,-3.247707169e-06,-5.115634357e-08,-3.389986913e-06,3.221850990e-07,-9.234618600e-07,1.703875415e-06,-2.494809839e-06,-1.877213454e-07,-1.126608324e-06,-4.137570768e-07,3.259815023e-06,-3.799143942e-06
0.855,-2.803838053e-05,-5.988984561e-06,-5.723429699e-06,2.231052326e-06,-1.550405045e-06,4.389070520e-06,-5.554395953e-06,-3.647239031e-06,6.486642421e-06,-8.288726520e-06,1.134151498e-06,-4.641958528e-06,-5.801934591e-06,7.966479372e-07,-1.173475028e-06,-3.227367409e-06,-2.516071220e-05,-8.060343911e-06,1.978655680e-07,3.581138224e-06,-2.258962848e-06,2.090038161e-06,-4.066782429e-06,3.857028169e-06,-1.054130014e-06,1.100542053e-06,1.342502422e-07,5.918930059e-07,-5.843799442e-06,5.476139530e-05
0.86,-2.870695688e-05,-6.798070237e-06,-6.788727664e-06,2.044551774e-06,-4.284480021e-07,4.084084361e-06,-5.867998226e-06,-2.599075361e-06,6.457640742e-06,-8.554411215e-06,4.556991194e-07,-6.285088750e-06,-6.593286704e-06,1.041035843e-07,-2.212899434e-06,-5.297641582e-06,-2.470526869e-05,-8.325762413e-06,-2.422987000e-07,3.195027634e-06,-3.108195657e-06,8.451087288e-07,-6.033585193e-06,3.232153131e-06,-1.288764924e-06,-1.606213864e-07,6.617033536e-07,7.734820606e-09,3.914684333e-06,9.944013626e-06
0.865,-3.210645033e-05,-1.170398302e-05,-1.105203996e-05,-1.769013724e-06,-8.705060710e-07,5.021465488e-07,-4.150764030e-06,-3.791513567e-06,3.284576480e-06,-8.450927874e-06,-2.089860253e-06,-7.328848993e-06,-7.439867493e-06,-2.343038684e-06,-4.348756814e-06,-7.747666699e-06,-2.834615638e-05,-1.194044871e-05,-4.215890439e-06,-1.177344106e-06,-6.050118455e-06,-2.850720664e-06,-6.538505635e-06,1.910664184e-07,-3.189854467e-06,-3.011539935e-06,-3.694979565e-07,-1.838444434e-06,6.050475115e-06,-4.973012934e-05
0.87,-3.563631309e-05,-1.764936554e-05,-1.560180946e-05,-6.985526657e-06,-2.438482874e-06,-4.036870277e-06,-8.232422211e-07,-5.952200044e-06,-6.824508931e-07,-7.329820532e-06,-4.493182377e-06,-6.900746498e-06,-7.577951946e-06,-4.931848094e-06,-6.074190499e-06,-8.698018216e-06,-3.353461426e-05,-1.659833611e-05,-9.104159014e-06,-6.650551898e-06,-9.521637078e-06,-6.785561385e-06,-6.190538673e-06,-3.400531199e-06,-5.567645702e-06,-5.713853310e-06,-2.762956733e-06,-3.985623870e-06,2.737950794e-06,-4.697318305e-06
0.875,-3.783309147e-05,-2.175437449e-05,-1.841369294e-05,-1.119167824e-05,-4.629784071e-06,-7.312910598e-06,1.291102559e-06,-7.706052561e-06,-3.277802869e-06,-5.365293037e-06,-5.269698541e-06,-5.408596858e-06,-6.619067869e-06,-6.121527621e-06,-6.396488410e-06,-7.229156064e-06,-3.730203883e-05,-1.961184328e-05,-1.241450663e-05,-9.903567158e-06,-1.164652459e-05,-8.876373741e-06,-5.937504035e-06,-5.544632639e-06,-7.086047643e-06,-6.949113041e-06,-5.181185358e-06,-5.516973655e-06,1.118993412e-06,4.983061097e-05
0.88,-3.883800837e-05,-2.323338739e-05,-1.900826661e-05,-1.317748896e-05,-6.586761119e-06,-8.550797915e-06,2.479812088e-07,-8.493113780e-06,-3.947805799e-06,-3.555279962e-06,-4.578756452e-06,-4.049608166e-06,-4.946886653e-06,-5.644189422e-06,-5.562817817e-06,-4.308971007e-06,-3.846086750e-05,-2.005955757e-05,-1.355221180e-05,-9.920259976e-06,-1.178305756e-05,-8.738101750e-06,-6.198409127e-06,-5.587404451e-06,-7.315599942e-06,-6.641102639e-06,-6.242221260e-06,-6.156744101e-06,4.185926183e-06,1.373544514e-06
0.885,-3.906956638e-05,-2.300690385e-05,-1.793406797e-05,-1.314202436e-05,-7.370186076e-06,-8.275088680e-06,-2.705286597e-06,-8.579538143e-06,-3.553595056e-06,-2.838704977e-06,-3.795211417e-06,-3.557682222e-06,-3.512469596e-06,-4.526619071e-06,-4.631068989e-06,-1.955040177e-06,-3.767984778e-05,-1.898458167e-05,-1.345959279e-05,-8.389950338e-06,-1.072272930e-05,-7.598995554e-06,-6.422975546e-06,-4.454858103e-06,-6.730820209e-06,-5.742235347e-06,-5.697970511e-06,-6.215019808e-06,8.692696471e-06,-5.186181363e-05
0.89,-3.836609818e-05,-2.214332867e-05,-1.617610979e-05,-1.203140584e-05,-6.854154755e-06,-7.406629663e-06,-4.740629094e-06,-8.528387875e-06,-3.203773351e-06,-3.333587919e-06,-4.136624972e-06,-3.580523308e-06,-3.173422243e-06,-4.003613026e-06,-4.448718343e-06,-1.464225532e-06,-3.615614974e-05,-1.797243353e-05,-1.309706197e-05,-7.648421368e-06,-9.653703650e-06,-6.916033501e-06,-5.707322026e-06,-3.568704732e-06,-5.920967625e-06,-5.266913793e-06,-4.469408947e-06,-6.056522430e-06,-2.077324825e-07,-7.091262041e-06
0.895,-3.661812335e-05,-2.106743727e-05,-1.476817612e-05,-1.082069109e-05,-6.060249429e-06,-6.691878940e-06,-4.879787924e-06,-8.765057210e-06,-3.431362031e-06,-4.457322502e-06,-5.679055518e-06,-3.311277325e-06,-4.130640534e-06,-4.491185309e-06,-5.115991164e-06,-2.524013378e-06,-3.465838726e-05,-1.785680982e-05,-1.269256492e-05,-8.510788156e-06,-9.218505572e-06,-7.230854711e-06,-3.986812584e-06,-3.643420223e-06,-5.137950993e-06,-5.546329476e-06,-3.658137342e-06,-5.794996050e-06,-1.241597494e-06,5.130558659e-05
0.9,-3.458129403e-05,-1.997807184e-05,-1.432508693e-05,-1.015878352e-05,-6.174479332e-06,-6.621196704e-06,-4.765256374e-06,-9.410194024e-06,-4.220647186e-06,-5.596523849e-06,-7.501509464e-06,-2.565859784e-06,-5.889108828e-06,-5.572768820e-06,-6.293919649e-06,-3.968628880e-06,-3.357486882e-05,-1.857954608e-05,-1.227061519e-05,-1.008480482e-05,-9.478863968e-06,-8.201153684e-06,-2.418608509e-06,-4.488515456e-06,-4.619280468e-06,-6.351377344e-06,-3.717113602e-06,-5.514229968e-06,3.681522446e-06,8.350901609e-06
0.905,-3.337265139e-05,-1.934374588e-05,-1.466955886e-05,-1.028043599e-05,-7.204357089e-06,-7.330949520e-06,-5.792200975e-06,-1.022202798e-05,-5.388133418e-06,-6.467044020e-06,-8.606580146e-06,-2.050063027e-06,-7.681656488e-06,-6.756323343e-06,-7.721246766e-06,-5.107330774e-06,-3.319860428e-05,-1.973508460e-05,-1.226880791e-05,-1.125387489e-05,-1.033108375e-05,-9.329493575e-06,-2.305848854e-06,-5.702342667e-06,-4.928064187e-06,-7.513654566e-06,-4.499604901e-06,-5.519916873e-06,9.382289897e-06,-4.870811416e-05
0.91,-3.318768930e-05,-1.959580921e-05,-1.511645427e-05,-1.102815652e-05,-7.933802340e-06,-8.410087513e-06,-6.544533081e-06,-1.066920257e-05,-6.750319412e-06,-6.915390299e-06,-8.716462769e-06,-2.553947555e-06,-8.945928801e-06,-7.992065336e-06,-9.240180670e-06,-6.085564238e-06,-3.357607559e-05,-2.093597099e-05,-1.320242025e-05,-1.188051763e-05,-1.161364878e-05,-1.040563349e-05,-3.726149634e-06,-7.227131672e-06,-6.536873194e-06,-9.148509831e-06,-5.714552693e-06,-6.058675784e-06,1.835376395e-06,-9.452437933e-06
0.915,-3.306179318e-05,-2.051524247e-05,-1.531479122e-05,-1.199403665e-05,-7.377303471e-06,-9.098813923e-06,-4.312292787e-06,-1.030055525e-05,-8.080454112e-06,-6.714071560e-06,-8.325077496e-06,-4.019138970e-06,-9.506499069e-06,-9.403582609e-06,-1.046287821e-05,-7.086290221e-06,-3.426677978e-05,-2.186605919e-05,-1.486876244e-05,-1.254786283e-05,-1.294546780e-05,-1.138924799e-05,-5.583133221e-06,-9.123239921e-06,-9.064590823e-06,-1.118813402e-05,-7.031236013e-06,-6.773216537e-06,-1.668923450e-06,4.792886898e-05
0.92,-3.216961821e-05,-2.129027028e-05,-1.565789078e-05,-1.276002610e-05,-6.038753397e-06,-8.985025797e-06,8.611412986e-07,-9.236699816e-06,-9.124821231e-06,-5.807902982e-06,-8.088003542e-06,-5.493201851e-06,-9.448710161e-06,-1.072311633e-05,-1.077452867e-05,-7.620619760e-06,-3.461570508e-05,-2.236765294e-05,-1.629101775e-05,-1.353176963e-05,-1.384936847e-05,-1.220613147e-05,-7.087742630e-06,-1.101368824e-05,-1.127919403e-05,-1.292713800e-05,-7.913972400e-06,-6.761806971e-06,7.076553432e-06,1.022963259e-05
0.925,-3.099368833e-05,-2.125554227e-05,-1.662083992e-05,-1.305024077e-05,-5.400055235e-06,-8.455809241e-06,4.878148238e-06,-8.231422402e-06,-9.692392275e-06,-4.679418396e-06,-8.171100119e-06,-5.960408397e-06,-8.929069933e-06,-1.127088706e-05,-9.899579317e-06,-6.941876410e-06,-3.432190232e-05,-2.254280932e-05,-1.658434343e-05,-1.436800236e-05,-1.417926150e-05,-1.278774043e-05,-8.732236098e-06,-1.207049411e-05,-1.212249855e-05,-1.337855312e-05,-7.834019057e-06,-5.496879652e-06,1.268185939e-05,-4.953222049e-05
0.93,-3.070858203e-05,-2.038413955e-05,-1.779159485e-05,-1.268235937e-05,-6.188431897e-06,-8.223397395e-06,3.354539788e-06,-8.061735549e-06,-9.639141560e-06,-4.185009525e-06,-8.177640604e-06,-5.166265796e-06,-8.139764758e-06,-1.060868577e-05,-8.385125618e-06,-5.094248628e-06,-3.354278644e-05,-2.251897009e-05,-1.567415605e-05,-1.436094844e-05,-1.420800176e-05,-1.312299129e-05,-1.133396259e-05,-1.169705502e-05,-1.165441115e-05,-1.222833630e-05,-6.883452325e-06,-3.653322991e-06,4.142301220e-06,-6.418134616e-06
0.935,-3.145851028e-05,-1.899702681e-05,-1.796844839e-05,-1.149644094e-05,-7.496747645e-06,-8.379125092e-06,-3.497596973e-06,-8.799616476e-06,-8.781464853e-06,-4.852763592e-06,-7.709607375e-06,-3.717984335e-06,-7.399627813e-06,-9.119512636e-06,-7.274805317e-06,-3.219151464e-06,-3.240481548e-05,-2.199726862e-05,-1.403097196e-05,-1.323152134e-05,-1.409897722e-05,-1.307266768e-05,-1.430179748e-05,-1.013853888e-05,-1.078590996e-05,-1.028969286e-05,-5.937146247e-06,-2.700884855e-06,-2.483556119e-06,5.071538532e-05
0.94,-3.181054451e-05,-1.724010968e-05,-1.646362284e-05,-9.491099422e-06,-7.820001835e-06,-8.155505829e-06,-1.060741220e-05,-9.765599904e-06,-6.978134673e-06,-6.375167661e-06,-6.936233749e-06,-2.547484029e-06,-7.142153039e-06,-7.770365015e-06,-7.157171134e-06,-2.597425497e-06,-3.068894299e-05,-2.028998767e-05,-1.192578276e-05,-1.118381696e-05,-1.344826865e-05,-1.221197118e-05,-1.556209142e-05,-8.267103462e-06,-1.011101756e-05,-8.786706785e-06,-5.837959183e-06,-3.437274234e-06,1.717455270e-06,6.488706541e-06
0.945,-3.030626045e-05,-1.509602881e-05,-1.409440358e-05,-7.040427310e-06,-6.744583412e-06,-6.778551092e-06,-1.295857902e-05,-1.020923658e-05,-4.383853200e-06,-7.859888540e-06,-6.450006556e-06,-2.304307884e-06,-7.640727315e-06,-7.203495799e-06,-7.574033587e-06,-3.440725073e-06,-2.824542157e-05,-1.713129583e-05,-9.279038469e-06,-8.556480853e-06,-1.166861344e-05,-1.011162166e-05,-1.362231918e-05,-6.712075528e-06,-9.241448525e-06,-8.132047267e-06,-6.384457683e-06,-5.007182470e-06,5.465168419e-06,-4.378080946e-05
0.95,-2.732003613e-05,-1.280117933e-05,-1.247710273e-05,-4.793371089e-06,-5.263819652e-06,-4.388291460e-06,-1.021918623e-05,-9.896293420e-06,-1.510907434e-06,-8.522681206e-06,-6.443949508e-06,-3.056213991e-06,-8.627102483e-06,-7.063270546e-06,-7.443932288e-06,-4.773217825e-06,-2.558050476e-05,-1.340883978e-05,-6.227287198e-06,-5.619858012e-06,-8.866748488e-06,-6.877034216e-06,-9.367244487e-06,-5.244868217e-06,-7.388942091e-06,-7.516666539e-06,-6.397690235e-06,-5.605589546e-06,-2.965505533e-06,-6.434382576e-06
0.955,-2.488761266e-05,-1.090298169e-05,-1.225066218e-05,-3.172210712e-06,-4.426773896e-06,-1.854461041e-06,-6.092491955e-06,-8.957441684e-06,1.134043495e-06,-8.070862942e-06,-6.136637943e-06,-4.305431453e-06,-9.214181827e-06,-6.265124010e-06,-6.057616621e-06,-5.486214265e-06,-2.367417250e-05,-1.072199604e-05,-3.450400887e-06,-2.644085110e-06,-6.040114358e-06,-3.260655063e-06,-5.247596104e-06,-3.058110369e-06,-4.394868118e-06,-5.773946148e-06,-4.951558901e-06,-4.223966433e-06,-4.379355334e-06,6.005154621e-05
0.96,-2.434870537e-05,-9.672652892e-06,-1.224596868e-05,-1.994117964e-06,-4.046977117e-06,2.194997359e-07,-3.638272438e-06,-7.351257761e-06,3.439686389e-06,-6.528073118e-06,-4.321772171e-06,-5.204104879e-06,-8.355514342e-06,-3.960388519e-06,-3.576885717e-06,-5.281188950e-06,-2.286660504e-05,-9.852261252e-06,-1.619605099e-06,5.474387910e-08,-4.120438433e-06,-5.998249273e-08,-2.705453532e-06,3.407753215e-07,-9.313191071e-07,-2.554624951e-06,-2.354415922e-06,-1.544781333e-06,2.221350000e-06,1.179783944e-05
0.965,-2.532663910e-05,-8.939001356e-06,-1.096464766e-05,-7.192501740e-07,-3.157736521e-06,2.181828846e-06,-2.485351441e-06,-4.924751622e-06,5.740628058e-06,-4.123866175e-06,-6.568848036e-07,-5.051285568e-06,-5.723266778e-06,-3.908603438e-07,-8.416340862e-07,-4.676446405e-06,-2.281417917e-05,-1.017116997e-05,-6.967139452e-07,2.252874226e-06,-3.141884581e-06,2.433368256e-06,-1.096154120e-06,4.486182980e-06,2.128025307e-06,1.243902466e-06,1.630110871e-07,8.075084500e-07,8.442936322e-06,-4.528060133e-05
0.97,-2.531976675e-05,-8.054719312e-06,-8.159695107e-06,7.808668193e-07,-1.366043888e-06,4.339934482e-06,-4.343589620e-07,-1.893586104e-06,7.985377583e-06,-1.278808768e-06,3.541092411e-06,-3.629612737e-06,-1.992727136e-06,3.297826125e-06,1.552345764e-06,-3.885833989e-06,-2.203247352e-05,-9.879787396e-06,3.554340088e-08,3.810591411e-06,-2.208052266e-06,4.460374657e-06,8.323723048e-07,8.093385737e-06,4.444531986e-06,4.418969613e-06,1.844610031e-06,2.024525424e-06,-7.138884827e-09,-7.913036502e-07
0.975,-2.442893845e-05,-7.411373031e-06,-5.935173172e-06,2.012338593e-06,2.191205650e-07,6.621312911e-06,2.354735196e-06,5.738587604e-07,9.872933348e-06,9.162313239e-07,6.308586339e-06,-1.635256711e-06,1.203512876e-06,5.624704931e-06,2.918672632e-06,-2.920373149e-06,-2.111871244e-05,-8.843144108e-06,8.752872609e-07,4.639230911e-06,-1.215721145e-06,5.803581622e-06,2.507340375e-06,9.864630561e-06,5.731740171e-06,5.908278114e-06,2.618572895e-06,2.234313458e-06,-1.597639753e-06,5.418934937e-05
0.98,-2.213010033e-05,-6.993993534e-06,-5.589095873e-06,2.258874010e-06,5.077562622e-07,7.661837376e-06,3.780585844e-06,1.500761721e-06,1.034058296e-05,1.687150170e-06,6.489680571e-06,1.240859114e-07,2.787150673e-06,5.996195544e-06,3.241876947e-06,-1.329287458e-06,-1.941840691e-05,-7.268205474e-06,1.477867578e-06,4.508302072e-06,-4.989043428e-07,6.007292732e-06,2.417662794e-06,9.244965394e-06,5.812775719e-06,5.745407166e-06,2.957398554e-06,2.252107959e-06,-5.381252705e-06,1.011470209e-05
0.985,-2.254522733e-05,-7.868389621e-06,-7.725329869e-06,1.670245167e-06,-8.312331780e-07,7.617835464e-06,1.470907653e-06,4.934489479e-07,9.711677484e-06,5.067366550e-07,4.993740885e-06,6.707618600e-07,2.150200747e-06,4.375534363e-06,1.684120543e-06,-2.373183729e-07,-1.983878217e-05,-7.633577130e-06,1.003717296e-06,3.580952386e-06,-1.432072597e-06,4.266212420e-06,-2.484132890e-07,6.780533794e-06,4.069501430e-06,3.693936036e-06,2.289905970e-06,1.576200221e-06,5.267456601e-06,-4.418951910e-05
0.99,-2.174415624e-05,-8.038387154e-06,-8.970389917e-06,8.803355543e-07,-2.096132072e-06,6.178997530e-06,-2.247818093e-06,-9.200199927e-07,7.710730464e-06,-1.152936520e-06,3.171131508e-06,3.631580347e-07,5.648298169e-07,2.014730915e-06,-5.583669853e-07,6.535572896e-08,-1.876813480e-05,-8.155878574e-06,-1.203484626e-07,2.215985184e-06,-2.849514909e-06,1.571953436e-06,-3.036870558e-06,3.689704012e-06,1.420845064e-06,1.020298572e-06,8.110497854e-07,3.720666507e-07,-3.565050481e-07,4.104769656e-07
0.995,-2.505930227e-05,-8.994120319e-06,-9.654550496e-06,8.014660403e-07,-2.929471955e-06,6.143103754e-06,-5.585273814e-06,-2.259192091e-06,6.567168389e-06,-2.896769209e-06,2.311109095e-06,-1.084606244e-06,-1.730901323e-06,-6.391220300e-07,-3.871179000e-06,-2.168165592e-06,-2.122201641e-05,-1.078348390e-05,-1.424197537e-06,1.368260980e-06,-4.955797497e-06,-1.429468305e-06,-4.377856277e-06,1.343360780e-06,-1.539297988e-06,-2.350819083e-06,-1.734960810e-06,-2.142497044e-06,-7.978724191e-06,5.543876108e-05
1,-1.354587262e-05,-4.691670454e-06,-4.584993525e-06,4.874715927e-07,-1.555080327e-06,3.306491874e-06,-3.131296199e-06,-1.417768012e-06,2.994501471e-06,-1.787634135e-06,9.584820466e-07,-1.187957035e-06,-1.559084402e-06,-1.042165849e-06,-2.826600552e-06,-2.240746398e-06,-1.152965759e-05,-6.180750158e-06,-9.522248759e-07,5.617371861e-07,-2.942855307e-06,-1.429424806e-06,-1.974839939e-06,2.388993519e-07,-1.429005283e-06,-2.073196903e-06,-1.560021352e-06,-1.874613547e-06,1.743506251e-06,1.598853846e-05
