Time,FP1,AFF5,AFz,F1,FC5,FC1,T7,C3,Cz,CP5,CP1,P7,P3,Pz,POz,O1,FP2,AFF6,F2,FC2,FC6,C4,T8,CP2,CP6,P4,P8,O2,HEOG,VEOG,
-0.1,1.043178159e-05,7.220781394e-06,5.340229583e-06,2.629437162e-06,5.985891090e-06,1.965036509e-06,4.009068341e-06,1.744358784e-06,4.815291454e-07,-1.820028637e-07,9.689577566e-08,-9.091965985e-07,-8.255040103e-07,-4.690789009e-07,-4.892325678e-07,-1.237038900e-08,1.621928062e-05,8.589273252e-06,3.120423550e-06,1.834911838e-06,4.065084789e-06,2.147182878e-06,2.648116498e-06,8.734925383e-07,1.057799064e-06,-3.732695726e-08,1.410850343e-06,1.423659855e-06,1.392564919e-05,1.147196204e-05
-0.095,1.323906049e-05,9.028675324e-06,5.722120124e-06,2.648168629e-06,5.059607893e-06,1.252653549e-06,6.614329085e-06,1.000834494e-06,-8.746933326e-07,-8.201408194e-07,-1.656211768e-06,-1.654360383e-06,-1.938845926e-06,-2.395682316e-06,-1.805734057e-06,9.114408514e-07,1.780811584e-05,1.146308097e-05,2.247498945e-06,3.164195436e-07,3.868545866e-06,1.138027631e-06,3.622718774e-06,-5.541056668e-07,-1.205949081e-06,-2.249530929e-06,4.950723300e-07,2.433314631e-06,2.372555421e-05,1.116691733e-05
-0.09,6.783659183e-06,2.892701440e-06,1.369308123e-07,1.062740888e-07,-1.659753528e-06,-7.243628007e-07,3.248378917e-06,-3.561434239e-07,-1.671954115e-06,-2.014082833e-07,-1.884572839e-06,-5.125836596e-07,-6.188326847e-07,-2.247716158e-06,-1.367657374e-06,2.200778471e-06,5.528331103e-06,7.052224362e-06,-1.965725263e-06,-2.644133927e-06,-1.131623412e-06,-1.963479083e-06,-1.636959188e-06,-1.755965465e-06,-3.712076343e-06,-3.542075643e-06,-2.593837992e-06,4.494048263e-07,-7.395988485e-07,1.139736214e-06
-0.085,5.004480822e-06,2.057496074e-06,-1.171121854e-06,-1.599597847e-07,-7.251258085e-07,3.005031768e-07,1.609601678e-06,1.468906870e-06,-1.711316802e-07,1.455891894e-06,1.634673862e-08,8.429446026e-07,1.506820497e-06,-2.841134470e-07,-1.323329503e-07,2.658224440e-06,7.351745264e-06,3.852923018e-06,-2.325806487e-06,-1.929074516e-06,-2.025556721e-06,-1.628689923e-06,-1.991465303e-06,-3.475745972e-07,-2.844913717e-06,-2.860112479e-06,-4.250486111e-06,-2.023053746e-06,-6.860105473e-06,4.758776692e-06
-0.08,1.877324492e-06,3.653889619e-06,-2.977193657e-07,5.628806620e-07,3.259021755e-06,2.278300425e-06,1.182867212e-06,3.808819935e-06,2.294851254e-06,2.865333084e-06,2.069753432e-06,1.374440636e-06,2.911361433e-06,1.806808917e-06,2.961074258e-07,1.176452766e-06,8.772447109e-06,-6.289276234e-06,-6.424438144e-07,7.542850384e-07,-7.439736446e-07,4.753761599e-07,4.378905253e-06,1.623101282e-06,-9.239581638e-07,-1.954546050e-06,-5.662017870e-06,-5.368619907e-06,6.978470362e-06,8.981020795e-07
-0.075,2.769629724e-06,7.955302078e-06,3.459388885e-06,2.912832214e-06,7.536806114e-06,4.426976909e-06,2.456634756e-06,5.197279944e-06,4.667349255e-06,2.961461432e-06,3.257500292e-06,1.263961356e-07,2.564112362e-06,2.917749736e-06,-4.631930393e-07,-2.047491964e-06,1.005720794e-05,-1.379388321e-05,2.557973147e-06,4.158160897e-06,2.582784492e-06,3.271214027e-06,1.335140140e-05,3.114839144e-06,5.699711713e-07,-1.724679196e-06,-6.711561210e-06,-8.563685099e-06,3.802865523e-06,-1.057878967e-05
-0.07,4.897718182e-06,9.599033677e-06,6.469210510e-06,5.397012383e-06,6.159271270e-06,5.322484905e-06,2.946624297e-06,4.334271167e-06,5.917960723e-06,1.820998464e-06,3.581540408e-06,-1.855452922e-06,1.427768881e-06,3.497733196e-06,-8.795114017e-07,-5.060010539e-06,7.449799295e-06,-9.574846216e-06,4.546874491e-06,6.041338627e-06,5.000171672e-06,4.617158268e-06,1.747431450e-05,3.632084709e-06,7.684586906e-07,-1.551443652e-06,-7.079557761e-06,-1.041648643e-05,-3.285044535e-06,7.625502966e-07
-0.065,5.681865269e-06,8.099721876e-06,7.832990507e-06,7.276385521e-06,-3.227750765e-07,5.477735163e-06,2.267501710e-06,2.499752986e-06,6.165178749e-06,4.636443634e-07,3.886345801e-06,-3.011305357e-06,8.665857884e-07,4.528979589e-06,4.218964700e-07,-5.991104886e-06,6.785312873e-06,7.906270005e-06,5.028145365e-06,6.461295867e-06,6.074978492e-06,4.750320961e-06,1.435806399e-05,4.114680833e-06,9.007217897e-07,-5.425352515e-08,-5.405734160e-06,-9.433325453e-06,-1.197944051e-07,3.634917604e-06
-0.06,1.340871621e-06,5.054859137e-06,7.169424820e-06,7.533643728e-06,-8.607225466e-06,5.347091791e-06,4.644462161e-07,1.171739179e-06,5.760191158e-06,-1.596394542e-07,4.364582549e-06,-2.397257099e-06,1.399111398e-06,5.878631310e-06,2.782295447e-06,-4.736134179e-06,7.482018631e-06,2.273700681e-05,4.407167758e-06,6.083658808e-06,5.551611857e-06,4.294111265e-06,5.856770437e-06,4.824775678e-06,1.673379314e-06,2.525397836e-06,-1.976859739e-06,-6.041983307e-06,5.630629264e-06,1.837076948e-06
-0.055,-5.250607555e-06,3.177040010e-06,5.296841609e-06,6.036159034e-06,-1.383321486e-05,4.986879193e-06,-1.682953706e-06,1.027153858e-06,4.824425609e-06,1.564557469e-08,4.361985711e-06,-6.315300739e-07,2.117316223e-06,6.004695536e-06,3.821230115e-06,-2.885385217e-06,5.968755952e-06,1.883096512e-05,3.810332714e-06,5.493226694e-06,3.848659893e-06,3.644967054e-06,-4.178060317e-06,4.965408078e-06,2.595426290e-06,4.126937276e-06,1.333921598e-06,-2.265591639e-06,3.156553805e-06,-4.169407063e-06
-0.05,-8.916357997e-06,1.402116297e-06,1.906607552e-06,2.920739269e-06,-1.403018315e-05,3.480481413e-06,-3.943438390e-06,1.078863425e-06,2.896614288e-06,2.608226703e-07,2.999552713e-06,9.601640995e-07,1.796887286e-06,3.491707312e-06,1.852609432e-06,-1.968416979e-06,-2.132451664e-06,-2.812247358e-06,3.192333588e-06,4.025248981e-06,7.449220350e-07,2.056663605e-06,-1.205846556e-05,3.210497927e-06,2.318288525e-06,2.798703615e-06,2.394627958e-06,-3.021605368e-07,-7.598084802e-06,-1.020942727e-05
-0.045,-7.323154123e-06,-2.682218168e-06,-3.049081136e-06,-1.091891468e-06,-9.838567444e-06,3.129032276e-07,-5.774706755e-06,9.988388648e-08,-2.968848474e-07,-1.313939011e-07,2.264462785e-07,1.471043898e-06,6.662098845e-08,-1.241519417e-06,-2.347868570e-06,-2.120218172e-06,-1.323352308e-05,-2.226906216e-05,1.788993727e-06,9.364071472e-07,-3.342215298e-06,-9.573069502e-07,-1.420422434e-05,-5.900382596e-07,4.362146858e-07,-1.091646041e-06,1.038983822e-06,-6.710962327e-07,-7.390384671e-06,-2.140969662e-06
-0.04,-3.823280306e-06,-8.542054222e-06,-8.002391570e-06,-4.817646978e-06,-3.443276519e-06,-3.669698820e-06,-6.168323000e-06,-2.008340644e-06,-4.066492284e-06,-1.149286202e-06,-2.979441718e-06,9.829521280e-07,-2.275744876e-06,-5.945603159e-06,-6.224986917e-06,-2.375849946e-06,-1.823407871e-05,-2.156828485e-05,-8.488527774e-07,-3.250934494e-06,-6.735883327e-06,-4.537524544e-06,-9.029644646e-06,-4.882259541e-06,-2.000425377e-06,-5.021822012e-06,-9.062735614e-07,-2.195060294e-06,6.806230317e-07,-3.744500536e-06
-0.035,-2.470132563e-06,-1.177068634e-05,-1.000112257e-05,-6.904074236e-06,2.797239889e-06,-6.531547296e-06,-4.398242064e-06,-3.986595898e-06,-6.791695251e-06,-2.093945144e-06,-5.240975651e-06,1.665819175e-07,-3.965448940e-06,-8.253612235e-06,-7.676413423e-06,-1.922661274e-06,-1.199008887e-05,-3.805372627e-06,-3.796596193e-06,-6.507911562e-06,-7.185824553e-06,-6.729625913e-06,1.278741381e-07,-7.434300979e-06,-3.431895284e-06,-6.511359569e-06,-1.449726932e-06,-3.272979558e-06,-4.013463821e-06,-3.312350434e-06
-0.03,-2.642153359e-06,-9.258453208e-06,-7.477129282e-06,-6.625099532e-06,6.912568409e-06,-6.810365400e-06,-1.105960549e-06,-4.464036259e-06,-7.064136951e-06,-2.241168869e-06,-5.670463963e-06,-3.795311861e-07,-4.177408388e-06,-7.413217118e-06,-6.441426453e-06,-7.439233799e-07,-2.054109173e-07,1.095227909e-05,-5.201989939e-06,-6.867274344e-06,-4.017664286e-06,-6.147445779e-06,5.721440225e-06,-7.042454593e-06,-3.123448291e-06,-5.009931173e-06,-1.246903706e-07,-2.903633239e-06,-1.077763634e-05,-3.310824204e-06
-0.025,-5.239943842e-07,-3.843839178e-06,-2.386166008e-06,-4.524317336e-06,7.898643014e-06,-4.795136498e-06,1.882028183e-06,-3.288459870e-06,-4.936933725e-06,-1.475813181e-06,-4.332387383e-06,-4.146435958e-07,-2.943487188e-06,-4.501523519e-06,-3.549351605e-06,8.124603889e-07,5.465337061e-06,8.409443646e-06,-3.970704478e-06,-4.300021516e-06,6.026885069e-07,-3.291225671e-06,2.303822953e-06,-4.333297118e-06,-1.497530886e-06,-1.736771650e-06,2.137259082e-06,-6.604965404e-07,-2.601325333e-06,3.545717519e-06
-0.02,4.326498083e-06,-1.634335842e-06,1.170043906e-06,-2.206786576e-06,6.277502894e-06,-2.280989001e-06,2.989346917e-06,-1.621511219e-06,-2.030325310e-06,-3.563273941e-07,-2.108509572e-06,5.426201201e-08,-9.785208492e-07,-1.255828226e-06,1.384038385e-08,2.627127025e-06,-6.084585701e-07,-5.038332211e-06,-1.141050260e-06,-9.943164123e-07,3.100558641e-06,-1.776846735e-07,-7.324610550e-06,-1.108620066e-06,5.236805060e-07,1.828699776e-06,4.317239797e-06,3.563373968e-06,-4.865148644e-07,2.395434652e-06
-0.015,6.311247351e-06,-4.611345658e-06,6.964016999e-07,-1.297784940e-06,3.645237060e-06,-1.121431561e-06,1.928973953e-06,-8.487404107e-07,-2.981058073e-07,3.554713987e-07,-1.897852014e-07,8.973848994e-07,7.747051636e-07,1.134945974e-06,3.740692669e-06,4.664010494e-06,-1.228847212e-05,-1.192656561e-05,5.639260733e-07,3.457042442e-07,1.597478629e-06,1.301994319e-06,-1.376185228e-05,9.891152097e-07,2.185190808e-06,4.905405447e-06,6.050898674e-06,9.158657836e-06,-7.437887470e-07,6.514424713e-06
-0.01,-8.268914673e-07,-8.118076498e-06,-2.697963500e-06,-2.397168512e-06,1.108540733e-06,-1.991732616e-06,-7.025349500e-07,-1.507765093e-06,-5.996676579e-07,2.094059780e-07,4.861457688e-07,1.805909252e-06,1.547240564e-06,2.281104211e-06,6.966992877e-06,6.356453430e-06,-1.863091101e-05,-5.373924088e-06,-1.091568407e-06,-1.380620749e-06,-2.458663709e-06,6.649417473e-07,-1.004571272e-05,1.322633571e-06,2.982288792e-06,7.066788210e-06,7.208876171e-06,1.430580266e-05,-5.238022117e-06,-1.109810713e-05
-0.005,-1.697879380e-05,-7.188565378e-06,-6.214532750e-06,-4.865941471e-06,-1.691170764e-06,-4.334029274e-06,-4.346172702e-06,-3.200579450e-06,-2.404401987e-06,-7.910258622e-07,-4.129464819e-07,2.240316082e-06,9.259213308e-07,2.090951891e-06,8.429113617e-06,6.512920914e-06,-1.564658892e-05,3.157748764e-06,-5.836588724e-06,-5.073191366e-06,-5.986216676e-06,-1.333637045e-06,1.130018926e-06,1.351873726e-07,2.479819083e-06,7.588583431e-06,7.347793553e-06,1.663834997e-05,-6.128046113e-06,3.840285033e-07
0,-3.549831446e-05,-3.900111932e-06,-8.738539691e-06,-7.523301829e-06,-5.504205396e-06,-7.188463013e-06,-8.456159573e-06,-5.293009858e-06,-4.755679492e-06,-2.388994681e-06,-2.627156074e-06,1.642080181e-06,-1.152525280e-06,3.825189645e-07,6.925373259e-06,4.143860935e-06,-9.909604682e-06,-1.796881297e-06,-1.103869848e-05,-8.777390383e-06,-7.549533721e-06,-3.863993195e-06,9.808879534e-06,-2.116043305e-06,3.949322892e-07,5.664736040e-06,6.015590135e-06,1.501800286e-05,-4.394317219e-07,3.310095639e-06
0.005,-4.940169961e-05,-5.713038299e-06,-1.165848717e-05,-9.613671410e-06,-9.524768546e-06,-9.951095149e-06,-1.173432547e-05,-7.487526928e-06,-7.331105226e-06,-4.265338300e-06,-5.606195714e-06,-1.146317417e-07,-4.409861836e-06,-2.908123040e-06,2.500415082e-06,-4.814351377e-07,-1.083989657e-05,-2.131624414e-05,-1.409906909e-05,-1.154735582e-05,-8.657968865e-06,-6.830667385e-06,8.156219143e-06,-5.209770790e-06,-3.074394903e-06,1.334735908e-06,3.492689724e-06,1.067986056e-05,-6.061074789e-06,-8.335364848e-06
0.01,-5.582090518e-05,-1.604796416e-05,-1.645591946e-05,-1.131209628e-05,-1.138955160e-05,-1.251011421e-05,-1.225275106e-05,-9.745759414e-06,-1.045290689e-05,-5.999744174e-06,-8.780136122e-06,-2.373430671e-06,-8.104464138e-06,-7.219383804e-06,-3.160355184e-06,-5.579108800e-06,-2.100337903e-05,-4.096116110e-05,-1.489445642e-05,-1.403566895e-05,-1.170392232e-05,-1.056433276e-05,-2.928593692e-06,-9.013410360e-06,-7.115750554e-06,-4.048758529e-06,8.424029379e-07,6.306455066e-06,-1.262925518e-05,-6.543155177e-06
0.015,-5.444938361e-05,-2.890505749e-05,-2.233277581e-05,-1.346185230e-05,-9.847277331e-06,-1.494698344e-05,-9.067725134e-06,-1.188187371e-05,-1.417173102e-05,-6.981274088e-06,-1.155071566e-05,-3.844927958e-06,-1.096995737e-05,-1.121212188e-05,-7.651464610e-06,-8.754894334e-06,-3.467673869e-05,-4.647559651e-05,-1.580872958e-05,-1.740163609e-05,-1.696820134e-05,-1.492596432e-05,-1.579347027e-05,-1.301702188e-05,-1.061871800e-05,-8.502138300e-06,-9.530977561e-07,3.797272058e-06,-4.460769640e-06,-2.452845494e-06
0.02,-4.483446493e-05,-3.486012445e-05,-2.683819624e-05,-1.677362611e-05,-7.134861027e-06,-1.724289025e-05,-3.692925759e-06,-1.344365976e-05,-1.762444619e-05,-6.616975165e-06,-1.318552082e-05,-3.356010356e-06,-1.164098475e-05,-1.333577748e-05,-9.345624238e-06,-8.495377526e-06,-4.452730143e-05,-3.707230561e-05,-1.922267089e-05,-2.180293215e-05,-2.212162083e-05,-1.895068595e-05,-2.310508983e-05,-1.619230200e-05,-1.275816535e-05,-1.069214026e-05,-1.789282598e-06,2.984534356e-06,3.330595885e-06,-6.363522929e-06
0.025,-2.825526211e-05,-3.137593870e-05,-2.857024098e-05,-2.109262595e-05,-7.680142152e-06,-1.920983439e-05,5.416969028e-07,-1.404766410e-05,-1.954266083e-05,-4.863976751e-06,-1.306654923e-05,-7.937495776e-07,-9.633016345e-06,-1.284682720e-05,-8.326408701e-06,-5.236279813e-06,-4.780140635e-05,-2.284743511e-05,-2.499062778e-05,-2.604097230e-05,-2.466552604e-05,-2.149523072e-05,-2.274776442e-05,-1.754551427e-05,-1.345267881e-05,-1.071040192e-05,-2.284144785e-06,2.457456779e-06,3.164679514e-06,-9.886882874e-06
0.03,-1.138023570e-05,-2.471428618e-05,-2.858536970e-05,-2.535449144e-05,-1.377434673e-05,-2.062139628e-05,9.680415253e-07,-1.377465101e-05,-1.943871886e-05,-2.604058931e-06,-1.133870920e-05,2.514917816e-06,-6.133444382e-06,-1.050861669e-05,-6.198637784e-06,-1.227577858e-06,-4.610306048e-05,-1.305113974e-05,-3.052288240e-05,-2.864236204e-05,-2.435934755e-05,-2.219708724e-05,-1.764223433e-05,-1.697648474e-05,-1.337043841e-05,-9.782213416e-06,-2.960537617e-06,1.314249149e-06,-8.307592675e-06,-1.854197788e-06
0.035,-4.050138353e-06,-2.151552848e-05,-2.898941619e-05,-2.833868850e-05,-2.272879131e-05,-2.141832630e-05,-2.477615814e-06,-1.317394842e-05,-1.815178841e-05,-1.305267124e-06,-9.265214088e-06,4.511859536e-06,-3.574898765e-06,-8.242646184e-06,-5.009430645e-06,8.600435281e-07,-4.149892956e-05,-1.023684699e-05,-3.332860035e-05,-2.916057622e-05,-2.292129741e-05,-2.167662390e-05,-1.284447475e-05,-1.553638602e-05,-1.337875482e-05,-9.248711142e-06,-3.744444438e-06,-1.386950207e-07,-5.223625198e-06,-7.207412948e-06
0.04,-1.083143953e-05,-2.133272361e-05,-3.062767165e-05,-2.955366538e-05,-2.883662316e-05,-2.179258800e-05,-7.567331628e-06,-1.283809694e-05,-1.707349588e-05,-2.014923529e-06,-8.543516751e-06,3.861565342e-06,-3.912706354e-06,-7.757029296e-06,-5.950190069e-06,-2.650617452e-07,-3.492507244e-05,-1.380122300e-05,-3.322450498e-05,-2.833660509e-05,-2.173054129e-05,-2.075097210e-05,-1.258814473e-05,-1.459534396e-05,-1.374437920e-05,-9.614136925e-06,-4.217771743e-06,-1.204711339e-06,4.794972200e-07,-4.644205505e-06
0.045,-2.591564298e-05,-1.955811674e-05,-3.250741196e-05,-2.935385156e-05,-2.828414714e-05,-2.197420273e-05,-1.162102865e-05,-1.292316523e-05,-1.680800721e-05,-4.481676421e-06,-9.867287610e-06,9.907451301e-07,-6.982659519e-06,-9.179351019e-06,-8.601478148e-06,-3.659526378e-06,-2.790363797e-05,-2.337499969e-05,-3.189846177e-05,-2.707243197e-05,-2.055620232e-05,-1.956654120e-05,-1.777870490e-05,-1.457385085e-05,-1.379891341e-05,-1.030980668e-05,-4.160597981e-06,-1.812471029e-06,-6.258630062e-06,3.360170083e-06
0.05,-3.865963519e-05,-1.578940068e-05,-3.314540312e-05,-2.818189190e-05,-2.201720512e-05,-2.184057399e-05,-1.296299221e-05,-1.304395025e-05,-1.666710024e-05,-7.270037017e-06,-1.210454984e-05,-2.277021180e-06,-1.058466126e-05,-1.096701190e-05,-1.125903409e-05,-7.018789198e-06,-2.343176915e-05,-3.576953392e-05,-3.061893760e-05,-2.547820804e-05,-1.870638944e-05,-1.768069941e-05,-2.468171866e-05,-1.455458398e-05,-1.260379620e-05,-1.031674071e-05,-3.760975253e-06,-2.480886351e-06,-1.110280196e-05,6.871621758e-06
0.055,-4.394951330e-05,-1.530440103e-05,-3.191936582e-05,-2.591157089e-05,-1.405383489e-05,-2.082768436e-05,-1.123837659e-05,-1.265755317e-05,-1.552657581e-05,-8.875461227e-06,-1.315386293e-05,-4.238900679e-06,-1.237640231e-05,-1.131302457e-05,-1.220985334e-05,-8.595333966e-06,-2.368827943e-05,-4.216798291e-05,-2.896373455e-05,-2.309123035e-05,-1.669700210e-05,-1.500412968e-05,-2.702750545e-05,-1.332148440e-05,-1.015655807e-05,-9.147693879e-06,-3.399828117e-06,-3.505742886e-06,-8.960194589e-06,1.826267859e-06
0.06,-4.503767562e-05,-2.119639066e-05,-2.916248164e-05,-2.223957039e-05,-7.697160708e-06,-1.846595502e-05,-7.300565668e-06,-1.161226239e-05,-1.311134741e-05,-8.850913054e-06,-1.184545349e-05,-4.571509769e-06,-1.177153824e-05,-9.750728171e-06,-1.099269463e-05,-8.411100818e-06,-2.766407768e-05,-3.448985686e-05,-2.600086808e-05,-1.991619295e-05,-1.592435237e-05,-1.240142514e-05,-2.156240801e-05,-1.079103877e-05,-7.796514896e-06,-7.305516274e-06,-3.302301505e-06,-4.512511157e-06,-9.233160681e-07,-6.209655396e-06
0.065,-4.625825605e-05,-2.842350322e-05,-2.564486154e-05,-1.771703609e-05,-3.718151161e-06,-1.511915182e-05,-3.169052052e-06,-1.034138474e-05,-1.033139226e-05,-7.901121525e-06,-8.989967066e-06,-4.158092922e-06,-9.987706280e-06,-7.351650294e-06,-8.538826814e-06,-7.647983037e-06,-3.258073660e-05,-1.648252522e-05,-2.217997935e-05,-1.690245870e-05,-1.666669180e-05,-1.103865817e-05,-1.200664036e-05,-8.213666796e-06,-7.020078725e-06,-5.709920638e-06,-3.286397855e-06,-4.814650348e-06,-7.479007583e-06,-2.455470180e-06
0.07,-4.641114696e-05,-2.924301323e-05,-2.242392640e-05,-1.395196674e-05,-1.527098304e-06,-1.202868848e-05,-1.454236346e-06,-9.469432566e-06,-8.348691544e-06,-6.948719231e-06,-6.453293162e-06,-3.827204091e-06,-8.394748090e-06,-5.371880437e-06,-6.090526362e-06,-7.008596155e-06,-3.757760544e-05,-4.619788411e-06,-1.928321021e-05,-1.513350403e-05,-1.721790762e-05,-1.107880548e-05,-5.899936981e-06,-6.823112675e-06,-7.732612240e-06,-4.631055469e-06,-2.738878417e-06,-3.953135969e-06,-1.053864428e-05,1.313380156e-06
0.075,-4.211506969e-05,-2.374797527e-05,-2.076392945e-05,-1.233102273e-05,-9.185192900e-07,-1.036538807e-05,-3.794716005e-06,-9.189861964e-06,-7.436167275e-06,-6.236632311e-06,-5.263566253e-06,-3.492125467e-06,-7.137510137e-06,-3.924855989e-06,-4.053264772e-06,-5.963781012e-06,-4.430029126e-05,-1.316620357e-05,-1.834830289e-05,-1.462467291e-05,-1.565340991e-05,-1.129139593e-05,-6.345558448e-06,-6.446919488e-06,-7.994510961e-06,-3.344842365e-06,-9.774139720e-07,-1.810796381e-06,-2.116464164e-06,-1.153152274e-06
0.08,-3.562411652e-05,-2.089560823e-05,-2.133645011e-05,-1.256522029e-05,-2.187666798e-06,-1.017608349e-05,-9.353711207e-06,-9.079733337e-06,-6.864714150e-06,-5.409262830e-06,-4.821226673e-06,-2.611374175e-06,-5.515796989e-06,-2.202001814e-06,-1.993962522e-06,-3.736945927e-06,-5.283942399e-05,-3.767973937e-05,-1.826895034e-05,-1.423653902e-05,-1.222125612e-05,-1.024439629e-05,-8.046764692e-06,-5.745716346e-06,-5.938703768e-06,-1.052073130e-06,2.063072066e-06,1.495634770e-06,-2.980699814e-06,-6.825308126e-06
0.085,-3.430454032e-05,-2.709704717e-05,-2.320865907e-05,-1.293561928e-05,-5.153995726e-06,-1.041688030e-05,-1.503870398e-05,-8.592270288e-06,-5.858901877e-06,-4.318300495e-06,-3.974669845e-06,-1.246178530e-06,-3.393321162e-06,1.233908607e-07,3.544347215e-07,-7.460517040e-07,-5.845671655e-05,-5.645567407e-05,-1.709846191e-05,-1.295533632e-05,-9.276399949e-06,-7.871067988e-06,-3.556031060e-06,-3.867145109e-06,-1.962723806e-06,1.905638685e-06,5.414787892e-06,5.495899626e-06,-7.864449511e-06,2.201487436e-06
0.09,-4.055049292e-05,-3.661772691e-05,-2.417470204e-05,-1.222999065e-05,-8.854758083e-06,-1.011027481e-05,-1.758516240e-05,-7.683542582e-06,-4.482470566e-06,-3.434048117e-06,-2.549129295e-06,-2.596383752e-07,-1.687524970e-06,2.148340643e-06,2.423300205e-06,1.411887988e-06,-5.488688169e-05,-5.090362342e-05,-1.461374141e-05,-1.110416375e-05,-8.649312556e-06,-5.607472754e-06,6.610285950e-06,-1.563891114e-06,1.370188784e-06,4.057133484e-06,7.612370334e-06,9.205256266e-06,-1.667250757e-05,5.878062115e-07
0.095,-4.603663789e-05,-3.730978447e-05,-2.276610064e-05,-1.116085324e-05,-1.219141643e-05,-9.336682722e-06,-1.569797330e-05,-6.824907425e-06,-3.490054604e-06,-3.284408186e-06,-1.482445734e-06,-3.207885894e-07,-1.267605206e-06,2.673727448e-06,3.358445554e-06,1.601203981e-06,-4.192020923e-05,-2.410953407e-05,-1.286126022e-05,-1.002521572e-05,-9.657408439e-06,-4.871519143e-06,1.256200931e-05,-4.107598561e-07,1.856423551e-06,4.245105623e-06,7.952596076e-06,1.149924375e-05,-1.570302801e-05,-2.702379126e-06
0.1,-4.065445091e-05,-2.584971577e-05,-2.001907015e-05,-1.145574562e-05,-1.436192299e-05,-8.950587356e-06,-1.053568747e-05,-6.390130999e-06,-3.441891859e-06,-3.659876788e-06,-1.532117936e-06,-9.778795362e-07,-1.730210508e-06,1.680174242e-06,3.084514484e-06,5.005277685e-07,-2.824127734e-05,2.170455579e-06,-1.376364736e-05,-1.055581507e-05,-1.026553487e-05,-5.626011572e-06,5.597188569e-06,-1.049056037e-06,-1.435071612e-07,2.915781416e-06,7.208138331e-06,1.196095654e-05,-7.083537546e-06,7.354933469e-06
0.105,-2.673327477e-05,-1.335476972e-05,-1.884964200e-05,-1.360474809e-05,-1.470846041e-05,-9.450434066e-06,-4.698310306e-06,-6.231334742e-06,-4.180964935e-06,-3.732383346e-06,-2.290578571e-06,-1.089668908e-06,-1.759909628e-06,4.385379230e-07,2.480518909e-06,-4.890302471e-08,-2.459034967e-05,8.592093516e-06,-1.661005663e-05,-1.207457974e-05,-9.901294465e-06,-6.688138759e-06,-1.090705520e-05,-2.569734538e-06,-2.329898027e-06,1.675399712e-06,6.837600136e-06,1.130244733e-05,-1.658643178e-05,1.094043986e-05
0.11,-1.954171876e-05,-1.326063509e-05,-2.137361639e-05,-1.601050048e-05,-1.302097659e-05,-1.040922317e-05,-9.919285783e-07,-6.045294396e-06,-5.189449272e-06,-3.101691510e-06,-2.759172307e-06,-2.174936279e-07,-7.462971122e-07,4.459556367e-08,2.395839684e-06,9.422401437e-07,-3.356528548e-05,-5.008598861e-06,-1.858825733e-05,-1.319796021e-05,-1.021889247e-05,-7.299603530e-06,-2.373426452e-05,-3.705691747e-06,-3.117606260e-06,1.550670897e-06,7.409328705e-06,1.073765052e-05,-1.722326958e-05,7.710883559e-06
0.115,-3.076232338e-05,-2.565987017e-05,-2.682306455e-05,-1.664004888e-05,-1.062421068e-05,-1.105022887e-05,-1.443574605e-06,-6.026497189e-06,-6.186134462e-06,-2.463032126e-06,-2.650846448e-06,7.309034918e-07,3.891316474e-07,2.173390418e-07,2.748669687e-06,2.557798273e-06,-4.728215666e-05,-2.317979081e-05,-1.783011020e-05,-1.319511035e-05,-1.266444124e-05,-7.895291514e-06,-2.362056970e-05,-4.235354996e-06,-3.108216303e-06,2.011465759e-06,8.041239018e-06,1.089049951e-05,-9.698291601e-06,1.147015884e-05
0.12,-5.397097604e-05,-3.733686000e-05,-3.207192398e-05,-1.518052144e-05,-1.053100593e-05,-1.105847737e-05,-6.148669243e-06,-6.763346237e-06,-7.115066287e-06,-2.863158525e-06,-2.644082463e-06,5.152299148e-07,3.153034331e-07,-8.975547151e-08,2.842191491e-06,3.108870766e-06,-5.581794032e-05,-3.203534762e-05,-1.531482542e-05,-1.239567169e-05,-1.591486362e-05,-9.074490750e-06,-1.477488654e-05,-4.816840537e-06,-3.720156965e-06,1.912017299e-06,7.573118132e-06,1.140146194e-05,-3.087615527e-07,1.705537408e-05
0.125,-7.048608576e-05,-3.742350574e-05,-3.406447857e-05,-1.311052101e-05,-1.510287132e-05,-1.056658430e-05,-1.238232995e-05,-8.269284416e-06,-7.658789708e-06,-4.258853874e-06,-3.248399714e-06,-8.914573913e-07,-9.541903330e-07,-1.073012302e-06,2.420351040e-06,2.092155415e-06,-5.704125882e-05,-3.068774392e-05,-1.341533563e-05,-1.129326141e-05,-1.672777998e-05,-1.022507241e-05,-8.899142798e-06,-5.625792972e-06,-4.956601690e-06,1.092420475e-06,6.046990889e-06,1.154602570e-05,-9.157766690e-06,4.866463719e-06
0.13,-6.934081398e-05,-2.929987336e-05,-3.186723100e-05,-1.180763530e-05,-2.288465947e-05,-9.584683655e-06,-1.566322070e-05,-9.389183937e-06,-7.207470521e-06,-5.190451995e-06,-3.867831486e-06,-2.103424335e-06,-1.908218522e-06,-1.646591980e-06,2.011098736e-06,6.796371843e-07,-5.686607544e-05,-2.726796114e-05,-1.308432083e-05,-9.797208695e-06,-1.362296630e-05,-9.880506856e-06,-1.104572182e-05,-5.819887257e-06,-5.365120471e-06,5.299213343e-07,4.599515671e-06,1.100262624e-05,-1.350618053e-05,5.633922736e-06
0.135,-5.759858721e-05,-2.465545721e-05,-2.701590643e-05,-1.126228443e-05,-2.854296989e-05,-7.994482628e-06,-1.326435643e-05,-8.688518155e-06,-5.634237413e-06,-4.261085482e-06,-3.462755038e-06,-1.796842215e-06,-1.302199908e-06,-8.833640824e-07,2.099776371e-06,2.643194774e-07,-6.038683105e-05,-2.775514192e-05,-1.326015419e-05,-7.789530445e-06,-9.122992882e-06,-7.681220345e-06,-1.453044655e-05,-4.740225407e-06,-4.289014680e-06,8.340015431e-07,3.865919807e-06,9.915511257e-06,-7.445321164e-06,1.277020121e-05
0.14,-4.970210495e-05,-2.842309900e-05,-2.251000953e-05,-1.091561768e-05,-2.722433597e-05,-6.284325626e-06,-7.366179838e-06,-6.144768205e-06,-3.946821540e-06,-1.893606286e-06,-2.070288194e-06,-1.699682380e-07,2.654150402e-07,5.050110249e-07,2.309190825e-06,8.787798911e-07,-6.512954399e-05,-3.100157376e-05,-1.300496450e-05,-6.150998847e-06,-7.670922737e-06,-5.473480791e-06,-1.080835630e-05,-3.277654194e-06,-3.310217190e-06,1.135964775e-06,3.007290532e-06,8.454112999e-06,2.957280325e-07,9.306820870e-07
0.145,-5.085947659e-05,-3.407525129e-05,-2.123232528e-05,-1.107361495e-05,-1.938710818e-05,-5.789746940e-06,-3.923278538e-06,-3.655773627e-06,-3.703031691e-06,-2.297709187e-07,-1.157276111e-06,1.298587116e-06,9.222337850e-07,6.936945194e-07,1.784386519e-06,1.296013368e-06,-6.463991529e-05,-3.293516209e-05,-1.322517794e-05,-6.480155344e-06,-1.128941570e-05,-5.781790534e-06,-1.628593026e-06,-3.337965121e-06,-4.638552195e-06,1.069959459e-08,7.873694881e-07,6.644986766e-06,-2.550481854e-06,1.773730197e-06
0.15,-5.528425415e-05,-3.415025295e-05,-2.422363243e-05,-1.256844842e-05,-1.072557452e-05,-7.547539748e-06,-7.137666932e-06,-3.441373733e-06,-5.504055143e-06,-1.019805243e-06,-2.145787338e-06,1.454384785e-06,-4.030465083e-07,-1.203504646e-06,3.039841661e-07,4.887076113e-07,-5.760799143e-05,-3.219081226e-05,-1.544095154e-05,-9.347484579e-06,-1.766079736e-05,-9.076946813e-06,1.925674722e-06,-5.713689185e-06,-8.218810415e-06,-2.621779864e-06,-2.566628267e-06,4.628178692e-06,-9.584447683e-06,1.911129165e-05
0.155,-5.854478190e-05,-3.077158867e-05,-2.959248503e-05,-1.502215212e-05,-6.788362720e-06,-1.083385007e-05,-1.475237538e-05,-5.859826191e-06,-8.220152225e-06,-3.737710076e-06,-4.795395213e-06,5.328027085e-07,-2.861484894e-06,-4.077848582e-06,-1.430584648e-06,-1.385915625e-06,-5.087506531e-05,-3.053637970e-05,-1.917503904e-05,-1.312619974e-05,-2.252726014e-05,-1.301378909e-05,-7.557400204e-06,-8.922689491e-06,-1.130688553e-05,-5.126686555e-06,-5.196898143e-06,2.744527613e-06,-4.212100502e-06,1.745249776e-05
0.16,-6.431978986e-05,-3.188380550e-05,-3.341690474e-05,-1.645611979e-05,-7.911338192e-06,-1.338220305e-05,-1.962252581e-05,-9.041421313e-06,-1.000100101e-05,-6.064240504e-06,-7.404619515e-06,-4.345940987e-07,-4.760452433e-06,-6.113722268e-06,-2.777179861e-06,-3.444369780e-06,-5.245521161e-05,-2.984036810e-05,-2.164557100e-05,-1.517031530e-05,-2.355689606e-05,-1.472120737e-05,-2.473508584e-05,-1.063085630e-05,-1.139734121e-05,-5.983130396e-06,-5.589837525e-06,1.181078617e-06,9.291989143e-07,1.943808784e-05
0.165,-7.555215920e-05,-3.900645108e-05,-3.286564308e-05,-1.544368047e-05,-9.867232589e-06,-1.351938316e-05,-1.671533754e-05,-1.079215636e-05,-1.007583146e-05,-6.257499554e-06,-8.580009349e-06,-9.329976061e-07,-5.387374294e-06,-6.803029562e-06,-4.022401728e-06,-5.068666384e-06,-6.315717514e-05,-3.075184299e-05,-2.061189868e-05,-1.435653369e-05,-2.164187423e-05,-1.363853411e-05,-3.714346853e-05,-1.011617823e-05,-9.107199011e-06,-5.581958633e-06,-4.336006946e-06,-2.368755727e-07,-4.908249182e-07,9.609864333e-06
0.17,-8.432768070e-05,-4.407189577e-05,-2.912261831e-05,-1.330860073e-05,-9.174472916e-06,-1.196732582e-05,-8.417126536e-06,-1.066737665e-05,-9.347623120e-06,-4.808536530e-06,-8.449646148e-06,-1.323556371e-06,-5.381467049e-06,-7.168216345e-06,-5.801910862e-06,-6.121591108e-06,-7.671555391e-05,-3.376040381e-05,-1.705463260e-05,-1.216099659e-05,-1.897454912e-05,-1.171906951e-05,-3.810167952e-05,-8.857846099e-06,-7.452612576e-06,-5.655153766e-06,-3.432492994e-06,-1.601621639e-06,-7.107165417e-07,7.121124618e-06
0.175,-7.857709349e-05,-4.040511747e-05,-2.681163296e-05,-1.318881956e-05,-6.880940536e-06,-1.113875366e-05,-2.293108517e-06,-1.002992368e-05,-9.193619678e-06,-3.659499900e-06,-8.058103185e-06,-1.985617522e-06,-5.492391958e-06,-8.070527756e-06,-7.795158207e-06,-6.457068698e-06,-8.715919474e-05,-3.915608406e-05,-1.437016231e-05,-1.102419173e-05,-1.678015374e-05,-1.098555113e-05,-3.134137524e-05,-8.626115120e-06,-8.335794102e-06,-7.011646350e-06,-3.953103381e-06,-2.430124997e-06,-4.258682787e-07,2.262772507e-06
0.18,-5.972458307e-05,-3.306413693e-05,-2.972035345e-05,-1.657840455e-05,-6.841894391e-06,-1.262886318e-05,-3.462668937e-06,-1.035001584e-05,-1.002780592e-05,-4.070866159e-06,-8.051397250e-06,-2.586918373e-06,-5.630336210e-06,-9.019803133e-06,-8.689347160e-06,-5.839937561e-06,-9.330664281e-05,-4.493899763e-05,-1.501228579e-05,-1.195625169e-05,-1.519501494e-05,-1.153256174e-05,-2.340855188e-05,-9.550905475e-06,-1.053859119e-05,-8.532834368e-06,-5.024978838e-06,-2.143058882e-06,-4.212092386e-07,1.667968576e-05
0.185,-4.654946218e-05,-3.370458491e-05,-3.692974966e-05,-2.148806008e-05,-1.106679314e-05,-1.577373358e-05,-9.663766598e-06,-1.189510453e-05,-1.133176943e-05,-5.600543316e-06,-8.445675983e-06,-2.530798071e-06,-5.486934988e-06,-9.149458780e-06,-7.869673773e-06,-4.593556959e-06,-9.538518952e-05,-4.645508113e-05,-1.851768341e-05,-1.411420722e-05,-1.454874429e-05,-1.224820404e-05,-1.540121100e-05,-1.054131746e-05,-1.161549806e-05,-8.809837425e-06,-5.373260976e-06,-1.246667095e-06,-1.868737086e-06,8.089980182e-06
0.19,-5.556048368e-05,-4.558021005e-05,-4.364132932e-05,-2.468172710e-05,-1.763859556e-05,-1.878023922e-05,-1.411092085e-05,-1.405119129e-05,-1.279860446e-05,-7.074504983e-06,-9.435188911e-06,-1.913151505e-06,-5.617293417e-06,-8.911131002e-06,-6.731362068e-06,-3.883249104e-06,-9.059401027e-05,-4.042796026e-05,-2.279815381e-05,-1.642275730e-05,-1.563152319e-05,-1.288194237e-05,-5.021291105e-06,-1.122146878e-05,-1.113523694e-05,-8.261411298e-06,-5.303481591e-06,-1.515346328e-06,-5.969233947e-06,2.575202422e-06
0.195,-8.004536100e-05,-5.815231760e-05,-4.602943797e-05,-2.531724247e-05,-2.298857298e-05,-2.072471942e-05,-1.273999518e-05,-1.626129220e-05,-1.470674327e-05,-8.007337397e-06,-1.153678984e-05,-1.559169295e-06,-7.072233624e-06,-9.825754263e-06,-7.486684430e-06,-4.731786035e-06,-7.625850808e-05,-2.970998220e-05,-2.640409623e-05,-1.871362214e-05,-1.835066869e-05,-1.437951597e-05,5.227639854e-06,-1.248711461e-05,-1.103918635e-05,-8.731609801e-06,-6.340008696e-06,-4.228108297e-06,-8.788207503e-06,2.581570622e-05
0.2,-9.559778411e-05,-5.911227512e-05,-4.480315644e-05,-2.538954360e-05,-2.519051695e-05,-2.183181206e-05,-7.976316975e-06,-1.806973622e-05,-1.680474996e-05,-8.677215290e-06,-1.439326176e-05,-1.962446222e-06,-9.703992150e-06,-1.219502794e-05,-1.039301887e-05,-6.648163149e-06,-5.763760455e-05,-2.235315606e-05,-2.878653913e-05,-2.081528403e-05,-2.078453316e-05,-1.690631178e-05,6.851339775e-06,-1.472192604e-05,-1.266623025e-05,-1.079160654e-05,-8.831330385e-06,-8.088751629e-06,-1.036030836e-05,2.159772583e-05
0.205,-8.818510534e-05,-4.912632024e-05,-4.356737794e-05,-2.645442915e-05,-2.468118361e-05,-2.202005931e-05,-5.476579149e-06,-1.853344495e-05,-1.738236759e-05,-9.083701797e-06,-1.594164629e-05,-2.530519104e-06,-1.145444528e-05,-1.377314089e-05,-1.275362363e-05,-7.702161539e-06,-4.820596979e-05,-2.439355046e-05,-2.903064410e-05,-2.124360764e-05,-2.043870369e-05,-1.840287367e-05,-5.063787048e-06,-1.616568630e-05,-1.440045695e-05,-1.223378352e-05,-1.071206898e-05,-9.601520081e-06,-8.630628639e-06,2.655304987e-05
0.21,-7.088491282e-05,-4.068789205e-05,-4.414038848e-05,-2.705641914e-05,-2.277726548e-05,-2.020921212e-05,-8.012249054e-06,-1.654418707e-05,-1.443932051e-05,-8.526197472e-06,-1.383351538e-05,-2.256506663e-06,-1.011066910e-05,-1.168955885e-05,-1.140917054e-05,-6.391581217e-06,-5.777955637e-05,-3.359503991e-05,-2.593645652e-05,-1.807584350e-05,-1.672082987e-05,-1.619170193e-05,-2.321726696e-05,-1.416405446e-05,-1.321549233e-05,-1.013240354e-05,-9.400264535e-06,-6.298759179e-06,-9.292026289e-06,1.984239940e-05
0.215,-6.752772359e-05,-4.250680312e-05,-4.443812916e-05,-2.445667314e-05,-2.069137629e-05,-1.578474177e-05,-1.309713157e-05,-1.229565176e-05,-8.180677827e-06,-6.554511501e-06,-8.153304146e-06,-1.062885431e-06,-5.873987469e-06,-5.849125355e-06,-6.268798209e-06,-3.351449480e-06,-8.045524967e-05,-4.129969822e-05,-2.003475023e-05,-1.157882107e-05,-1.185911748e-05,-1.019890060e-05,-3.278060125e-05,-8.357420941e-06,-8.401241696e-06,-4.402990951e-06,-4.840456838e-06,3.413937029e-07,-1.314704740e-05,3.920495844e-05
0.22,-8.258937536e-05,-4.907328398e-05,-4.117694932e-05,-1.849362224e-05,-1.975581546e-05,-1.030053310e-05,-1.612989900e-05,-7.969208501e-06,-1.790253015e-06,-3.982671262e-06,-2.176462916e-06,-6.941225798e-08,-1.629346589e-06,2.803727580e-07,-8.017156686e-07,-8.421878455e-07,-9.792262431e-05,-4.085825708e-05,-1.442914140e-05,-5.110314540e-06,-9.034368209e-06,-3.818438960e-06,-2.585605211e-05,-1.916892169e-06,-2.842259527e-06,1.437386133e-06,-1.477277260e-08,5.743558696e-06,-5.759979600e-07,5.242293966e-05
0.225,-9.467460735e-05,-4.807657331e-05,-3.372185919e-05,-1.230221454e-05,-2.098797159e-05,-6.629159440e-06,-1.490742476e-05,-6.053423898e-06,1.106051148e-06,-2.382297977e-06,3.859036674e-07,-3.314139366e-07,-2.159420384e-07,2.853376973e-06,1.332836788e-06,-4.533803810e-07,-9.675536556e-05,-3.376119004e-05,-1.205788579e-05,-2.259012171e-06,-9.557849979e-06,-8.892469695e-07,-9.552154800e-06,1.179025937e-06,-1.521192311e-07,3.556333963e-06,1.877849106e-06,6.392257316e-06,1.963422844e-05,4.947617324e-05
0.23,-8.173473282e-05,-3.560522807e-05,-2.431763368e-05,-8.577377325e-06,-2.329023907e-05,-5.950585363e-06,-1.083250304e-05,-6.698672883e-06,-6.816545153e-08,-2.447059037e-06,-9.820769000e-07,-1.577963759e-06,-1.608238495e-06,1.411236422e-06,-1.588019329e-07,-1.620500022e-06,-8.039797289e-05,-2.710460853e-05,-1.194291998e-05,-2.957233851e-06,-1.192388249e-05,-1.954677403e-06,1.608142094e-06,6.245521021e-08,-1.070952122e-06,1.561913402e-06,4.080149307e-07,3.001697107e-06,1.217328120e-05,6.131753240e-05
0.235,-4.632742260e-05,-1.987544800e-05,-1.480715257e-05,-6.101099025e-06,-2.275296343e-05,-6.185928350e-06,-6.520691796e-06,-7.304091910e-06,-2.344298107e-06,-3.223814338e-06,-3.226635074e-06,-2.553505256e-06,-3.233912476e-06,-1.055601586e-06,-2.429036345e-06,-2.630116555e-06,-6.141233338e-05,-2.540658611e-05,-9.484522875e-06,-3.309057910e-06,-1.346354864e-05,-4.064907051e-06,9.434479031e-08,-2.402041050e-06,-3.339612381e-06,-1.509426284e-06,-2.232594283e-06,-6.938465470e-07,3.293645293e-05,1.052738585e-04
0.24,-9.823156870e-06,-9.705537566e-06,-4.332595637e-06,-1.246996417e-06,-1.543459556e-05,-4.179634314e-06,-3.151722853e-06,-5.286325885e-06,-2.497883241e-06,-3.226735278e-06,-3.220715844e-06,-2.551991092e-06,-3.056621445e-06,-1.737207709e-06,-3.049760715e-06,-2.808685682e-06,-4.348535567e-05,-2.551321717e-05,-1.511037383e-06,1.053282133e-07,-1.268070686e-05,-4.285928355e-06,-9.429706407e-06,-3.038483999e-06,-4.830243091e-06,-2.790502295e-06,-4.007387445e-06,-2.069246130e-06,6.669175169e-05,1.554197743e-04
0.245,1.546664046e-05,-3.278103848e-06,9.129325764e-06,7.248603965e-06,-1.634543043e-06,6.957182640e-07,-1.813135960e-07,-1.025337735e-06,-4.553098858e-07,-2.074364760e-06,-1.160598271e-06,-2.193141548e-06,-1.789695692e-06,-9.836014673e-07,-2.621546135e-06,-3.200499484e-06,-1.633946935e-05,-1.959479050e-05,9.595270467e-06,6.260563458e-06,-1.002585130e-05,-2.708492241e-06,-1.816294056e-05,-1.772027656e-06,-5.763527403e-06,-2.443955200e-06,-4.960265855e-06,-2.005577213e-06,8.295013264e-05,2.226742962e-04
0.25,3.974898419e-05,8.773597237e-06,2.576324303e-05,1.647802961e-05,1.334168972e-05,5.915236620e-06,3.150837930e-06,2.617372957e-06,1.135490060e-06,-6.224647450e-07,9.877689859e-08,-2.449285149e-06,-1.676627095e-06,-1.228465822e-06,-3.486668661e-06,-4.972173216e-06,2.884065108e-05,-2.792396872e-06,1.821771433e-05,1.094268617e-05,-6.813398787e-06,-1.500601335e-06,-2.301268624e-05,-1.056786413e-06,-7.367041086e-06,-2.617347710e-06,-6.246130997e-06,-3.111546237e-06,1.020085862e-04,2.554750083e-04
0.255,7.858957349e-05,3.098797107e-05,4.357562623e-05,2.312848226e-05,2.374205447e-05,9.078894283e-06,6.688096971e-06,3.842484113e-06,6.052615765e-07,4.717411679e-07,-1.104480990e-06,-3.196024987e-06,-3.427414702e-06,-3.467241574e-06,-6.404068371e-06,-7.628620506e-06,8.285054852e-05,2.206932779e-05,2.219154094e-05,1.201078927e-05,-3.784640400e-06,-1.498766820e-06,-2.662891157e-05,-2.261647874e-06,-9.179876049e-06,-4.205281150e-06,-7.989923638e-06,-6.229132653e-06,1.321146118e-04,3.646075973e-04
0.26,1.295337200e-04,5.763185577e-05,6.100159949e-05,2.808424279e-05,2.877318713e-05,1.109925285e-05,9.655688977e-06,4.299379081e-06,-3.068466164e-07,1.778965180e-06,-2.924839154e-06,-3.205051037e-06,-5.087726437e-06,-5.767031138e-06,-9.381387775e-06,-9.333209066e-06,1.240702908e-04,4.679665718e-05,2.584145979e-05,1.237138455e-05,-7.097336346e-07,-8.183236163e-07,-2.995918845e-05,-3.641547948e-06,-8.984795059e-06,-5.630836932e-06,-8.947725301e-06,-9.430126433e-06,1.507106962e-04,4.175705643e-04
0.265,1.741259755e-04,8.014077512e-05,7.867254099e-05,3.570537429e-05,3.281143368e-05,1.525554848e-05,1.169043273e-05,7.305777727e-06,1.660215449e-06,4.322516977e-06,-2.055038099e-06,-1.651107792e-06,-4.200820914e-06,-5.551248119e-06,-9.982241928e-06,-8.959310212e-06,1.427358650e-04,6.455542719e-05,3.512183369e-05,1.682626441e-05,2.953143114e-06,2.714846700e-06,-2.897544147e-05,-2.419869955e-06,-5.745631377e-06,-5.021691636e-06,-8.303390920e-06,-1.042336532e-05,1.703056712e-04,4.967705638e-04
0.27,2.019809465e-04,9.662995687e-05,9.783251867e-05,4.834824745e-05,4.010720374e-05,2.317571990e-05,1.345602831e-05,1.393173599e-05,7.318567513e-06,8.046650960e-06,2.397838879e-06,7.752947522e-07,-6.107814376e-07,-2.648113203e-06,-8.090044635e-06,-7.332093483e-06,1.548325291e-04,7.489696505e-05,5.022181028e-05,2.632581060e-05,7.242091218e-06,8.435948672e-06,-2.044679673e-05,1.695591467e-06,-1.700259578e-06,-2.769961616e-06,-7.055861225e-06,-9.194608356e-06,1.804086179e-04,5.606143114e-04
0.275,2.237275792e-04,1.115084247e-04,1.176766095e-04,6.302565152e-05,5.005224835e-05,3.271610199e-05,1.634053616e-05,2.166366350e-05,1.383820525e-05,1.164103960e-05,7.935555684e-06,2.598857488e-06,3.446696609e-06,7.039579841e-07,-5.730018835e-06,-6.158419933e-06,1.857873568e-04,8.294283497e-05,6.463887861e-05,3.651801506e-05,1.141915158e-05,1.310518990e-05,-8.657140634e-06,6.019671077e-06,-5.215867928e-07,-1.101143868e-06,-7.064427628e-06,-7.734730301e-06,1.982860435e-04,6.157213311e-04
0.28,2.550317506e-04,1.275920962e-04,1.355373921e-04,7.466070872e-05,5.832921939e-05,4.040745331e-05,2.138781939e-05,2.726705796e-05,1.788993663e-05,1.405801795e-05,1.168965809e-05,3.242734357e-06,5.959402083e-06,2.723014117e-06,-4.407106217e-06,-6.035767811e-06,2.400172169e-04,9.366536654e-05,7.233029190e-05,4.252146459e-05,1.432941598e-05,1.445557270e-05,-3.183927086e-06,8.066961222e-06,-3.369322940e-06,-1.231700690e-06,-8.937220368e-06,-7.501534833e-06,2.264824017e-04,6.916933542e-04
0.285,2.936045585e-04,1.425584240e-04,1.499909648e-04,8.204226497e-05,6.224935938e-05,4.545588810e-05,2.807648244e-05,3.036884448e-05,1.943578446e-05,1.577011837e-05,1.365480439e-05,3.554455554e-06,7.243666459e-06,4.091644486e-06,-3.480030408e-06,-6.016701295e-06,2.919732945e-04,1.063308217e-04,7.474531355e-05,4.442001511e-05,1.515727141e-05,1.381936987e-05,-9.401275841e-06,8.487147213e-06,-7.479161559e-06,-1.794962575e-06,-1.141077359e-05,-7.913576189e-06,2.459942514e-04,7.751664566e-04
0.29,3.212231900e-04,1.539880755e-04,1.627938367e-04,8.903656966e-05,6.385880487e-05,5.039117439e-05,3.400974942e-05,3.350556831e-05,2.168184528e-05,1.808668697e-05,1.626075333e-05,4.549731987e-06,9.132686956e-06,6.677191578e-06,-1.540729837e-06,-5.163850456e-06,3.116891751e-04,1.143519596e-04,7.937687646e-05,4.707267345e-05,1.419997578e-05,1.469900694e-05,-2.294987083e-05,1.019796229e-05,-9.036052306e-06,-5.497805002e-07,-1.288419162e-05,-7.568650786e-06,2.666218231e-04,8.374522482e-04
0.295,3.289744849e-04,1.644707433e-04,1.768248419e-04,9.953046683e-05,6.746224328e-05,5.769220459e-05,3.637091932e-05,3.880625527e-05,2.728793017e-05,2.139067217e-05,2.105531518e-05,6.035434503e-06,1.247605446e-05,1.081111659e-05,1.217664119e-06,-4.002896863e-06,2.977077138e-04,1.114972431e-04,9.137478596e-05,5.452841617e-05,1.304438213e-05,1.896879634e-05,-3.466479882e-05,1.483664675e-05,-7.037508692e-06,2.787707064e-06,-1.309631806e-05,-6.362975125e-06,2.921169361e-04,8.932217937e-04
0.3,3.314934004e-04,1.785175641e-04,1.923487847e-04,1.124427611e-04,7.487324975e-05,6.665293304e-05,3.450098834e-05,4.547756136e-05,3.527362937e-05,2.461833974e-05,2.671940631e-05,6.908006815e-06,1.607687213e-05,1.467046613e-05,2.878452277e-06,-3.972101334e-06,2.801750205e-04,9.943899189e-05,1.077939476e-04,6.550752775e-05,1.359732931e-05,2.501857197e-05,-3.969997582e-05,2.078043383e-05,-3.864086152e-06,6.084670634e-06,-1.301765223e-05,-5.761098870e-06,3.186689898e-04,9.357267034e-04
0.305,3.494511446e-04,1.954365319e-04,2.061662466e-04,1.228952759e-04,8.379409431e-05,7.419833382e-05,3.125593767e-05,5.093726215e-05,4.201892403e-05,2.668832761e-05,3.069444381e-05,6.724317410e-06,1.818488941e-05,1.641931765e-05,2.125451546e-06,-5.577846023e-06,2.899805035e-04,8.919174567e-05,1.206522807e-04,7.480208739e-05,1.630383533e-05,2.959378303e-05,-4.015625577e-05,2.487058879e-05,-2.359016927e-06,7.140736003e-06,-1.349459973e-05,-7.031715788e-06,3.504176605e-04,9.511083441e-04
0.31,3.822691231e-04,2.088143772e-04,2.146362068e-04,1.277515012e-04,9.040649591e-05,7.827888958e-05,3.122752915e-05,5.377416604e-05,4.487621418e-05,2.797382999e-05,3.210021649e-05,6.450194638e-06,1.848997241e-05,1.623660734e-05,-3.116956608e-08,-7.637577104e-06,3.279480656e-04,9.346887940e-05,1.246773257e-04,7.843257535e-05,1.906021149e-05,3.081142665e-05,-3.949234144e-05,2.553667168e-05,-3.146192095e-06,5.871700524e-06,-1.459855305e-05,-9.806564020e-06,3.607553924e-04,1.032781655e-03
0.315,4.078192011e-04,2.142688352e-04,2.169208776e-04,1.284711781e-04,9.258718996e-05,7.950559674e-05,3.686744408e-05,5.475695632e-05,4.421061979e-05,2.978435117e-05,3.226522593e-05,7.320331027e-06,1.818372053e-05,1.572089847e-05,-1.405758975e-06,-8.608398700e-06,3.670709801e-04,1.155115450e-04,1.210182321e-04,7.661743840e-05,1.832527611e-05,2.905046118e-05,-3.730452612e-05,2.376027313e-05,-5.022083820e-06,3.846699910e-06,-1.627020795e-05,-1.267956822e-05,3.833781608e-04,1.081054242e-03
0.32,4.112101223e-04,2.151797333e-04,2.150333651e-04,1.281886066e-04,9.066410178e-05,7.942495967e-05,4.611064910e-05,5.509113148e-05,4.209457586e-05,3.244573249e-05,3.254966363e-05,9.199604611e-06,1.828758265e-05,1.570761321e-05,-1.213013736e-06,-8.351312670e-06,3.828304183e-04,1.445070096e-04,1.141206911e-04,7.210197503e-05,1.209995542e-05,2.555664039e-05,-3.156332942e-05,2.136466719e-05,-7.147789645e-06,2.179351808e-06,-1.886994855e-05,-1.485782385e-05,4.035085644e-04,1.102319125e-03
0.325,4.053138784e-04,2.182181844e-04,2.115741261e-04,1.275318314e-04,8.641303896e-05,7.831105806e-05,5.401316013e-05,5.475885089e-05,3.992426413e-05,3.452339757e-05,3.260480613e-05,1.056311480e-05,1.854879295e-05,1.547626102e-05,-7.901487076e-07,-8.138354200e-06,3.765931224e-04,1.627998780e-04,1.070723398e-04,6.703888536e-05,2.260996236e-06,2.123135968e-05,-2.466696917e-05,1.922775729e-05,-9.856655037e-06,6.249871934e-07,-2.251199790e-05,-1.670256052e-05,4.211642415e-04,1.134363159e-03
0.33,4.145509397e-04,2.243148263e-04,2.083733655e-04,1.248549449e-04,8.242873433e-05,7.557942816e-05,5.689284962e-05,5.324193934e-05,3.786152111e-05,3.437093077e-05,3.132189761e-05,1.022896274e-05,1.820001996e-05,1.422902035e-05,-1.605640069e-06,-8.937745841e-06,3.683280515e-04,1.594029601e-04,1.009422114e-04,6.230722392e-05,-6.325075041e-06,1.698533866e-05,-2.406071143e-05,1.740168801e-05,-1.330728953e-05,-1.242066751e-06,-2.612431098e-05,-1.867119103e-05,4.419812326e-04,1.140928785e-03
0.335,4.412459952e-04,2.273510933e-04,2.068412709e-04,1.200440013e-04,8.178331997e-05,7.187265704e-05,5.488988757e-05,5.124101902e-05,3.600577806e-05,3.216881281e-05,2.891485928e-05,8.759953691e-06,1.731535215e-05,1.257890704e-05,-3.196722404e-06,-1.016954968e-05,3.711559139e-04,1.380818372e-04,9.695762336e-05,5.887069840e-05,-9.730997992e-06,1.425779582e-05,-3.500805352e-05,1.616363782e-05,-1.635637636e-05,-2.808035552e-06,-2.795811278e-05,-2.027727233e-05,4.655795975e-04,1.161443286e-03
0.34,4.587055654e-04,2.227609256e-04,2.078146482e-04,1.159664134e-04,8.636285062e-05,6.931351632e-05,5.074905521e-05,5.045346981e-05,3.494011574e-05,2.986169120e-05,2.705642424e-05,7.805992003e-06,1.680590105e-05,1.185298956e-05,-3.742706217e-06,-1.049356562e-05,3.782178716e-04,1.130798612e-04,9.658912256e-05,5.791271255e-05,-8.590346683e-06,1.398464369e-05,-5.356875201e-05,1.595202432e-05,-1.763356867e-05,-3.102280478e-06,-2.743236527e-05,-2.050808585e-05,4.885254882e-04,1.184395388e-03
0.345,4.427614006e-04,2.146846754e-04,2.098729693e-04,1.149707266e-04,9.444815009e-05,6.899237898e-05,4.677967406e-05,5.128512768e-05,3.466994709e-05,2.897806143e-05,2.672788583e-05,8.165465967e-06,1.706425834e-05,1.211726700e-05,-2.557636284e-06,-9.603752318e-06,3.740822972e-04,9.691225929e-05,9.869376345e-05,5.889032156e-05,-7.834964016e-06,1.491136594e-05,-6.859654461e-05,1.620334594e-05,-1.755412343e-05,-2.496230935e-06,-2.613926558e-05,-1.913516952e-05,4.998095727e-04,1.185757391e-03
0.35,4.036418592e-04,2.117226118e-04,2.087135818e-04,1.150553183e-04,1.007804351e-04,6.895533867e-05,4.351021965e-05,5.163895718e-05,3.372732159e-05,2.898416833e-05,2.668454064e-05,8.894391097e-06,1.716114196e-05,1.170947950e-05,-1.285248449e-06,-8.735176216e-06,3.538875255e-04,9.145082639e-05,9.843918114e-05,5.856130290e-05,-1.239631499e-05,1.386575900e-05,-7.146986441e-05,1.511757988e-05,-1.840656723e-05,-2.899845963e-06,-2.649317563e-05,-1.723479507e-05,5.040137138e-04,1.166648898e-03
0.355,3.769997972e-04,2.162461569e-04,2.002440302e-04,1.114269178e-04,1.006524432e-04,6.587280069e-05,4.091619502e-05,4.893448511e-05,3.029904335e-05,2.816685419e-05,2.478219048e-05,8.488720189e-06,1.579667277e-05,9.142998489e-06,-2.180723436e-06,-9.217912631e-06,3.278980096e-04,8.943779705e-05,9.129452367e-05,5.351928162e-05,-2.267301143e-05,8.621244854e-06,-6.350614918e-05,1.133122867e-05,-2.195265460e-05,-5.791099141e-06,-2.929806724e-05,-1.630162027e-05,5.215335201e-04,1.141194227e-03
0.36,3.827599980e-04,2.209780169e-04,1.852794434e-04,1.022864293e-04,9.452510320e-05,5.894135933e-05,3.982170152e-05,4.328140408e-05,2.443504675e-05,2.588150783e-05,2.067828149e-05,6.662611766e-06,1.288452286e-05,5.062962458e-06,-5.505191177e-06,-1.086746107e-05,3.093875676e-04,8.331735099e-05,7.833892315e-05,4.407872913e-05,-3.401445862e-05,5.385653531e-07,-5.370220065e-05,5.729350110e-06,-2.722541013e-05,-1.033618254e-05,-3.293299070e-05,-1.701248796e-05,5.467301795e-04,1.152951535e-03
0.365,4.013686202e-04,2.174447073e-04,1.702866294e-04,9.176695087e-05,8.786689677e-05,5.136355962e-05,4.125304210e-05,3.785006475e-05,1.856634260e-05,2.335040446e-05,1.652094135e-05,4.611157655e-06,9.773512443e-06,1.729257545e-06,-9.163620300e-06,-1.221436853e-05,3.022129138e-04,7.219076498e-05,6.618900341e-05,3.479862620e-05,-4.073170379e-05,-6.185131157e-06,-4.992263084e-05,1.015763515e-06,-3.120025315e-05,-1.397788491e-05,-3.504356201e-05,-1.889748012e-05,5.528222417e-04,1.143185096e-03
0.37,3.970437109e-04,2.057906282e-04,1.620857451e-04,8.600599163e-05,8.570591560e-05,4.734071705e-05,4.464220467e-05,3.568313445e-05,1.536434038e-05,2.210170015e-05,1.467611931e-05,3.560375406e-06,7.808858626e-06,5.811260745e-07,-1.098499848e-05,-1.230540894e-05,3.007282354e-04,6.100164148e-05,6.073636985e-05,3.040402786e-05,-4.084977648e-05,-8.242160518e-06,-5.275561397e-05,-7.710660976e-07,-3.171118683e-05,-1.495380732e-05,-3.479639308e-05,-2.097458220e-05,5.469585563e-04,1.126115050e-03
0.375,3.605751445e-04,1.939493293e-04,1.615088365e-04,8.670841382e-05,8.760548472e-05,4.784317208e-05,4.756736824e-05,3.656571375e-05,1.521144491e-05,2.210037356e-05,1.518375751e-05,3.431215280e-06,6.977257722e-06,8.116553749e-07,-1.094290805e-05,-1.188506582e-05,2.980760226e-04,5.429690503e-05,6.151917658e-05,3.133892250e-05,-3.727754566e-05,-6.130110048e-06,-5.712850080e-05,-9.555681837e-08,-2.946987478e-05,-1.393288618e-05,-3.334222707e-05,-2.252452134e-05,5.562384712e-04,1.105090774e-03
0.38,3.204133926e-04,1.878720438e-04,1.628875420e-04,8.962090956e-05,8.863478962e-05,4.985851577e-05,4.780081329e-05,3.754162291e-05,1.607150954e-05,2.188598992e-05,1.587434306e-05,3.150128567e-06,6.182786496e-06,5.330658077e-07,-1.087783142e-05,-1.253466129e-05,2.915080012e-04,5.156677182e-05,6.302569401e-05,3.376391342e-05,-3.474306994e-05,-3.366787085e-06,-5.841700235e-05,8.195883504e-07,-2.723605172e-05,-1.310657908e-05,-3.242282426e-05,-2.347314364e-05,5.656304529e-04,1.094350353e-03
0.385,3.092360658e-04,1.853631698e-04,1.599257214e-04,8.931533644e-05,8.510291534e-05,4.967099116e-05,4.537182173e-05,3.626635456e-05,1.570757523e-05,2.040353380e-05,1.478273263e-05,2.058736857e-06,4.643703398e-06,-1.096729644e-06,-1.233018795e-05,-1.480782855e-05,2.811010471e-04,4.843474792e-05,6.096415170e-05,3.367978366e-05,-3.583720196e-05,-3.149382895e-06,-5.650866244e-05,2.374267578e-07,-2.735934632e-05,-1.403666227e-05,-3.300276405e-05,-2.441997103e-05,5.653246678e-04,1.077136193e-03
0.39,3.262662963e-04,1.805067251e-04,1.513855037e-04,8.436345041e-05,7.842600683e-05,4.625309293e-05,4.218236389e-05,3.317845969e-05,1.361994830e-05,1.816081355e-05,1.194045108e-05,6.467471327e-07,2.666057426e-06,-3.349081604e-06,-1.507921273e-05,-1.754527996e-05,2.672114508e-04,4.162535836e-05,5.594384331e-05,3.036530944e-05,-3.980216056e-05,-6.007950403e-06,-5.501106534e-05,-1.886521690e-06,-3.024015052e-05,-1.664293088e-05,-3.516215440e-05,-2.631024921e-05,5.539865981e-04,1.060947102e-03
0.395,3.391489203e-04,1.718668038e-04,1.407407287e-04,7.738781532e-05,7.298025399e-05,4.136570717e-05,3.969575446e-05,3.031160736e-05,1.084928779e-05,1.640902979e-05,8.817879782e-06,-1.549452510e-07,1.072204754e-06,-5.234310831e-06,-1.773484783e-05,-1.907875090e-05,2.507466956e-04,3.224131323e-05,5.096487840e-05,2.580158226e-05,-4.441137224e-05,-1.029053328e-05,-5.773814272e-05,-4.580931634e-06,-3.464529487e-05,-1.989810730e-05,-3.855631210e-05,-2.958613676e-05,5.607378847e-04,1.052448464e-03
0.4,3.210515745e-04,1.637457879e-04,1.314019035e-04,7.129102838e-05,7.094916081e-05,3.721839592e-05,3.753109277e-05,2.878501123e-05,8.551538974e-06,1.563531332e-05,6.678345059e-06,-7.987811447e-08,2.956765578e-07,-6.570250553e-06,-1.920173679e-05,-1.883767446e-05,2.339636247e-04,2.422564143e-05,4.707322701e-05,2.184621125e-05,-4.826766423e-05,-1.405869088e-05,-6.573458247e-05,-6.956963572e-06,-3.878852766e-05,-2.277785234e-05,-4.232809584e-05,-3.322496705e-05,5.691771472e-04,1.030092027e-03
0.405,2.786643675e-04,1.598285082e-04,1.238250354e-04,6.698522536e-05,7.025974581e-05,3.488319314e-05,3.454782605e-05,2.815967745e-05,7.317030116e-06,1.534069909e-05,5.951129845e-06,3.401968561e-07,3.140381887e-07,-7.452520602e-06,-1.922565478e-05,-1.758223516e-05,2.189503676e-04,2.001229909e-05,4.308959529e-05,1.899574260e-05,-5.120078623e-05,-1.613313625e-05,-7.624910570e-05,-8.337755887e-06,-4.104478742e-05,-2.434430880e-05,-4.480437721e-05,-3.482178078e-05,5.610713248e-04,1.016051636e-03
0.41,2.412032680e-04,1.583202602e-04,1.172465163e-04,6.455816902e-05,6.744988672e-05,3.462946002e-05,3.086772047e-05,2.787834459e-05,7.549028104e-06,1.513417258e-05,6.771006525e-06,6.036776354e-07,1.189208006e-06,-7.281086046e-06,-1.789305555e-05,-1.626995187e-05,2.059404211e-04,1.805900360e-05,3.896616887e-05,1.750570560e-05,-5.316830870e-05,-1.596601951e-05,-8.373666104e-05,-7.942002481e-06,-4.041563151e-05,-2.361125634e-05,-4.420266340e-05,-3.233230880e-05,5.648005877e-04,1.018713003e-03
0.415,2.277300140e-04,1.546686197e-04,1.123062550e-04,6.462336233e-05,6.154736449e-05,3.645603869e-05,2.821161606e-05,2.825880185e-05,9.552390216e-06,1.538538772e-05,9.174579367e-06,8.251607997e-07,3.114190144e-06,-5.189808987e-06,-1.533990376e-05,-1.511390960e-05,1.947103621e-04,1.477218946e-05,3.712543987e-05,1.817353188e-05,-5.366275970e-05,-1.360254329e-05,-8.284682170e-05,-5.380141410e-06,-3.717146153e-05,-2.024800239e-05,-4.031138622e-05,-2.624134032e-05,5.562261818e-04,1.006026808e-03
0.42,2.317165293e-04,1.474341968e-04,1.102244730e-04,6.704103775e-05,5.469497985e-05,3.946561674e-05,2.811738309e-05,2.959391041e-05,1.273574250e-05,1.645191069e-05,1.239205122e-05,1.342368180e-06,5.731686703e-06,-1.603425585e-06,-1.223004017e-05,-1.388663667e-05,1.869765286e-04,8.651708058e-06,3.924146593e-05,2.104893911e-05,-5.244145807e-05,-1.016944983e-05,-7.244798988e-05,-1.680687436e-06,-3.312376436e-05,-1.559389071e-05,-3.531421078e-05,-1.986170258e-05,5.635941132e-04,9.919542033e-04
0.425,2.357706117e-04,1.394013262e-04,1.098528943e-04,6.913144260e-05,4.978056362e-05,4.135757235e-05,3.018488550e-05,3.094471162e-05,1.520912867e-05,1.764787568e-05,1.456636520e-05,1.982220158e-06,7.778049261e-06,1.298141600e-06,-1.003850379e-05,-1.280412628e-05,1.848193720e-04,2.103930808e-06,4.285997437e-05,2.402869448e-05,-5.036212029e-05,-7.763964386e-06,-5.782948463e-05,8.460202764e-07,-3.062890293e-05,-1.231843640e-05,-3.233185364e-05,-1.696289653e-05,5.577760142e-04,9.693032640e-04
0.43,2.327679537e-04,1.333462321e-04,1.075684807e-04,6.721352743e-05,4.838042423e-05,3.985968660e-05,3.236556556e-05,3.074352473e-05,1.503714729e-05,1.760067399e-05,1.402945040e-05,2.062532539e-06,7.887656514e-06,1.339738290e-06,-1.016417949e-05,-1.263700495e-05,1.858707706e-04,-1.178963134e-06,4.315873317e-05,2.412312085e-05,-4.895938363e-05,-7.990786182e-06,-4.813417910e-05,4.845728221e-07,-3.075333841e-05,-1.236562226e-05,-3.278787000e-05,-1.873807770e-05,5.505457041e-04,9.706619431e-04
0.435,2.274094942e-04,1.289547913e-04,1.012319367e-04,6.074763731e-05,5.061475474e-05,3.517180622e-05,3.288179866e-05,2.863685479e-05,1.218515484e-05,1.574676452e-05,1.102794640e-05,1.191366494e-06,5.851485003e-06,-1.416978587e-06,-1.253083651e-05,-1.382561642e-05,1.826526549e-04,-5.243832333e-07,3.838500424e-05,2.061953688e-05,-4.914058633e-05,-1.040029150e-05,-4.973623980e-05,-2.116402793e-06,-3.241291261e-05,-1.513094240e-05,-3.529753569e-05,-2.305594346e-05,5.482106219e-04,9.667391866e-04
0.44,2.219829475e-04,1.247009440e-04,9.334640192e-05,5.384175709e-05,5.554932403e-05,3.035143594e-05,3.168145013e-05,2.602423448e-05,8.829336097e-06,1.305876882e-05,7.715961503e-06,-1.539737224e-07,2.857097332e-06,-4.605602595e-06,-1.535594357e-05,-1.575981544e-05,1.697621065e-04,5.634172986e-07,3.214190933e-05,1.626735248e-05,-5.054122509e-05,-1.277767038e-05,-6.078078682e-05,-4.482011424e-06,-3.357299788e-05,-1.799845330e-05,-3.726111040e-05,-2.668559925e-05,5.542389759e-04,9.494486219e-04
0.445,2.101541592e-04,1.209074823e-04,8.878454813e-05,5.133599904e-05,6.099907676e-05,2.854651231e-05,3.011892440e-05,2.442100177e-05,7.372579590e-06,1.100340890e-05,6.127888738e-06,-1.034358204e-06,3.810198174e-07,-5.854221119e-06,-1.662560245e-05,-1.722276114e-05,1.514527297e-04,-2.034586567e-06,2.929610331e-05,1.457590576e-05,-5.216478205e-05,-1.326358910e-05,-7.223076077e-05,-4.773940481e-06,-3.329514686e-05,-1.883074252e-05,-3.738098881e-05,-2.812762613e-05,5.492829632e-04,9.441313013e-04
0.45,1.882856838e-04,1.189917293e-04,8.925931337e-05,5.358616856e-05,6.392346541e-05,2.993829682e-05,2.948434297e-05,2.380846256e-05,8.287888142e-06,1.003747848e-05,6.389797869e-06,-9.827399218e-07,-9.756788454e-07,-4.886376894e-06,-1.581674754e-05,-1.753088818e-05,1.389917702e-04,-8.525596964e-06,3.043218685e-05,1.615252358e-05,-5.333652247e-05,-1.202429708e-05,-7.524597119e-05,-3.427824681e-06,-3.238871300e-05,-1.775217493e-05,-3.644490874e-05,-2.825490319e-05,5.464256658e-04,9.237892926e-04
0.455,1.670436448e-04,1.183323632e-04,9.121593614e-05,5.626040886e-05,6.256717400e-05,3.193555513e-05,2.984355856e-05,2.319720892e-05,1.016250981e-05,9.537988775e-06,7.192100955e-06,-3.784902860e-07,-1.440937736e-06,-3.198342846e-06,-1.405261827e-05,-1.702310354e-05,1.387374825e-04,-1.486999914e-05,3.172615099e-05,1.838686725e-05,-5.390548085e-05,-1.065887667e-05,-6.853876792e-05,-2.178242557e-06,-3.209257692e-05,-1.641157510e-05,-3.587834427e-05,-2.852765942e-05,5.534877897e-04,9.207273948e-04
0.46,1.638371538e-04,1.162213595e-04,8.981518210e-05,5.549771062e-05,5.848898223e-05,3.231434638e-05,2.999256041e-05,2.249696265e-05,1.160537267e-05,9.104852452e-06,7.704166685e-06,1.079951173e-07,-1.170210958e-06,-2.036486248e-06,-1.264708881e-05,-1.636663823e-05,1.445510157e-04,-1.726737083e-05,3.012991091e-05,1.870384632e-05,-5.392703998e-05,-1.026139045e-05,-5.895435337e-05,-1.864764819e-06,-3.254429160e-05,-1.585082919e-05,-3.604293689e-05,-2.906270630e-05,5.540513640e-04,9.264388133e-04
0.465,1.820691124e-04,1.117045629e-04,8.415415532e-05,5.208140228e-05,5.534988260e-05,3.142045509e-05,2.838912298e-05,2.283911019e-05,1.249942262e-05,9.307893409e-06,8.370970491e-06,2.650574803e-07,1.002620421e-07,-1.231859151e-06,-1.175493875e-05,-1.560786967e-05,1.444248854e-04,-1.647323955e-05,2.698624657e-05,1.725262059e-05,-5.367415902e-05,-1.055604060e-05,-5.476745723e-05,-1.769178905e-06,-3.286033255e-05,-1.554741316e-05,-3.614888674e-05,-2.857837434e-05,5.551856322e-04,9.235264255e-04
0.47,2.026596901e-04,1.076275029e-04,7.755481848e-05,4.962559520e-05,5.485857542e-05,3.090383087e-05,2.448721003e-05,2.465551588e-05,1.323744832e-05,1.074480515e-05,9.695538870e-06,4.125283188e-07,2.345861644e-06,-3.790947932e-08,-1.054549064e-05,-1.416979141e-05,1.340137436e-04,-1.684669159e-05,2.554749672e-05,1.589570837e-05,-5.386736330e-05,-1.089384109e-05,-5.810829495e-05,-1.071413913e-06,-3.245025916e-05,-1.450163591e-05,-3.543725558e-05,-2.589451601e-05,5.494997479e-04,9.184599993e-04
0.475,2.008254223e-04,1.069744671e-04,7.319558206e-05,4.950919820e-05,5.456423953e-05,3.099566663e-05,1.965569937e-05,2.623280082e-05,1.341552350e-05,1.270159137e-05,1.091608775e-05,8.300018978e-07,4.595188781e-06,1.484202390e-06,-8.467438640e-06,-1.177585073e-05,1.207029106e-04,-2.101691287e-05,2.611893157e-05,1.528939367e-05,-5.519313038e-05,-1.140403613e-05,-6.366323769e-05,-2.369204110e-07,-3.167116051e-05,-1.270761628e-05,-3.393114879e-05,-2.115177505e-05,5.540876412e-04,9.129528912e-04
0.48,1.712526920e-04,1.078939862e-04,7.096371856e-05,4.931367289e-05,5.085723126e-05,3.011155430e-05,1.673497998e-05,2.522857129e-05,1.209369480e-05,1.344790606e-05,1.062396487e-05,1.332316170e-06,5.494852226e-06,2.433807416e-06,-6.033506097e-06,-9.107473763e-06,1.134363892e-04,-2.638628639e-05,2.560471901e-05,1.414600754e-05,-5.716956287e-05,-1.259883970e-05,-6.456442888e-05,-4.050679291e-07,-3.103487280e-05,-1.113420972e-05,-3.203680287e-05,-1.566886328e-05,5.588517464e-04,8.995877954e-04
0.485,1.340233363e-04,1.048070065e-04,6.900384915e-05,4.659194147e-05,4.410273663e-05,2.726861894e-05,1.798830577e-05,2.166173515e-05,9.340588493e-06,1.211405146e-05,8.631245350e-06,1.505937437e-06,4.641889454e-06,2.268426560e-06,-4.319671295e-06,-7.320355972e-06,1.115632909e-04,-2.786459557e-05,2.203955804e-05,1.150170580e-05,-5.798757922e-05,-1.413697905e-05,-5.931752710e-05,-1.695430683e-06,-3.028805193e-05,-1.046532480e-05,-2.993124123e-05,-1.098235888e-05,5.509432937e-04,8.867144225e-04
0.49,1.149346057e-04,9.544016121e-05,6.682625927e-05,4.257083693e-05,3.931615030e-05,2.388925682e-05,2.285656272e-05,1.843512998e-05,6.735789185e-06,9.864772563e-06,6.519955794e-06,1.255957981e-06,3.063643978e-06,1.479043112e-06,-3.912457367e-06,-6.934240253e-06,1.070529748e-04,-2.397840449e-05,1.770395247e-05,8.560023282e-06,-5.637052396e-05,-1.482121614e-05,-5.281808323e-05,-2.885016225e-06,-2.885438060e-05,-1.039654065e-05,-2.771827012e-05,-8.107004427e-06,5.390165128e-04,8.951884216e-04
0.495,1.217952926e-04,8.509090539e-05,6.524526037e-05,4.056479517e-05,4.060506884e-05,2.231954156e-05,2.784430086e-05,1.819837578e-05,5.769479584e-06,8.747351495e-06,5.925613326e-06,9.675636034e-07,2.156053053e-06,8.492364307e-07,-4.509196837e-06,-7.362809631e-06,9.679061535e-05,-1.923027038e-05,1.624154150e-05,7.296761733e-06,-5.373125000e-05,-1.419711331e-05,-5.076570095e-05,-3.029429460e-06,-2.711433052e-05,-1.034186492e-05,-2.594711802e-05,-7.314314031e-06,5.427389085e-04,8.824535743e-04
0.5,1.408308570e-04,8.185561761e-05,6.372210532e-05,4.119887881e-05,4.557303037e-05,2.284574252e-05,2.929112724e-05,2.012141920e-05,6.039456491e-06,9.458305422e-06,6.636742895e-06,1.113047244e-06,2.287217626e-06,3.939004199e-07,-5.452947352e-06,-7.589765331e-06,8.816650430e-05,-1.965199109e-05,1.749201113e-05,7.642839858e-06,-5.358280236e-05,-1.363025167e-05,-5.372260298e-05,-2.858035895e-06,-2.661748041e-05,-1.043540012e-05,-2.543763935e-05,-8.158242845e-06,5.509881618e-04,8.748850192e-04
0.505,1.535447892e-04,8.767422961e-05,5.992663044e-05,4.108659491e-05,4.686304078e-05,2.316662490e-05,2.667100182e-05,2.067501455e-05,5.697059809e-06,1.069458881e-05,6.949664385e-06,1.801474087e-06,2.682618766e-06,-5.539140364e-07,-6.442579399e-06,-7.186344914e-06,8.975498359e-05,-2.642627963e-05,1.722920041e-05,7.276830165e-06,-5.791333432e-05,-1.506341316e-05,-5.731075649e-05,-3.938685441e-06,-2.859155192e-05,-1.139372826e-05,-2.640957304e-05,-9.705226239e-06,5.535407099e-04,8.769190089e-04
0.51,1.532349497e-04,9.568271388e-05,5.308668059e-05,3.711495016e-05,3.994250700e-05,2.117543921e-05,2.293747002e-05,1.774359167e-05,3.763097869e-06,1.084164484e-05,5.836790330e-06,2.763956358e-06,2.586638659e-06,-2.278432872e-06,-7.639911852e-06,-6.559856869e-06,9.868040169e-05,-3.489812228e-05,1.263119471e-05,4.632119428e-06,-6.436670531e-05,-1.866783989e-05,-5.812859010e-05,-6.559375932e-06,-3.242892432e-05,-1.343420361e-05,-2.809243890e-05,-1.112112119e-05,5.522867901e-04,8.798120327e-04
0.515,1.448748375e-04,9.704926038e-05,4.645283947e-05,3.085184885e-05,2.851787340e-05,1.756280312e-05,2.124513454e-05,1.318910834e-05,1.393358197e-06,9.876812015e-06,4.143850121e-06,3.685360094e-06,2.135028657e-06,-4.128315149e-06,-9.184990605e-06,-6.297196918e-06,1.014463946e-04,-4.009370865e-05,6.413154581e-06,1.193022905e-06,-6.807095858e-05,-2.234088470e-05,-5.831881223e-05,-9.084479054e-06,-3.605788311e-05,-1.572170905e-05,-2.948495987e-05,-1.228501705e-05,5.579342137e-04,8.825768434e-04
0.52,1.336440767e-04,8.940122086e-05,4.435272526e-05,2.709321075e-05,2.123608850e-05,1.492262238e-05,2.148474409e-05,1.075427553e-05,4.107301051e-07,9.162606477e-06,3.334779068e-06,4.407204861e-06,1.873833397e-06,-5.203320927e-06,-1.073510064e-05,-6.487281212e-06,8.850144765e-05,-4.217589890e-05,3.869836809e-06,-1.937929308e-07,-6.676925666e-05,-2.390365277e-05,-6.297938577e-05,-9.724553638e-06,-3.782451297e-05,-1.706884932e-05,-3.034823359e-05,-1.369705658e-05,5.634748160e-04,8.748466551e-04
0.525,1.190316218e-04,7.787743083e-05,4.664191110e-05,2.811064597e-05,2.321675922e-05,1.454814537e-05,2.064998939e-05,1.185025255e-05,9.659601112e-07,9.507843407e-06,3.532495417e-06,4.784193326e-06,1.718589647e-06,-5.309887816e-06,-1.152882631e-05,-6.788537558e-06,6.556002634e-05,-4.529486771e-05,6.276692990e-06,9.884590515e-07,-6.341792983e-05,-2.340643965e-05,-7.294187203e-05,-8.536452913e-06,-3.766562068e-05,-1.697147324e-05,-3.109939521e-05,-1.559276170e-05,5.568730936e-04,8.612794487e-04
0.53,1.009393615e-04,6.922347156e-05,4.799526709e-05,3.087618722e-05,3.168819128e-05,1.503835552e-05,1.687770272e-05,1.425751007e-05,1.387172439e-06,1.003316272e-05,3.479526259e-06,4.495898341e-06,8.971222962e-07,-4.927473888e-06,-1.093404665e-05,-7.008464128e-06,4.844546527e-05,-5.122587381e-05,9.142038035e-06,2.105276598e-06,-6.273475016e-05,-2.268159818e-05,-8.153954495e-05,-7.154622976e-06,-3.636681317e-05,-1.575836010e-05,-3.174419477e-05,-1.727843610e-05,5.524407240e-04,8.524117392e-04
0.535,8.695492131e-05,6.660231450e-05,4.409170537e-05,3.082711397e-05,3.990304285e-05,1.438798912e-05,1.256195730e-05,1.505478079e-05,4.611749712e-07,9.299023093e-06,2.437976919e-06,3.222715248e-06,-9.134785454e-07,-4.346933753e-06,-8.996193490e-06,-7.345728890e-06,4.773801076e-05,-5.570602226e-05,7.778895483e-06,7.309685222e-07,-6.538478445e-05,-2.274421928e-05,-8.024633904e-05,-6.672456800e-06,-3.420010979e-05,-1.392618977e-05,-3.139148366e-05,-1.764534876e-05,5.546771167e-04,8.478613112e-04
0.54,8.814011652e-05,6.955938959e-05,3.744990536e-05,2.736951788e-05,4.405198612e-05,1.269364569e-05,1.255992694e-05,1.397017714e-05,-8.083482645e-07,7.279939766e-06,1.460369052e-06,1.143793267e-06,-2.692617219e-06,-3.228134557e-06,-6.454364369e-06,-7.928141156e-06,6.025377145e-05,-5.255179666e-05,3.193509048e-06,-2.042911962e-06,-6.690747548e-05,-2.243890493e-05,-6.790705757e-05,-6.416378683e-06,-3.088512403e-05,-1.171233417e-05,-2.921444826e-05,-1.635682622e-05,5.589871738e-04,8.638394107e-04
0.545,1.061516447e-04,7.607712769e-05,3.498559536e-05,2.420310884e-05,4.540427734e-05,1.194317429e-05,1.893306341e-05,1.319645524e-05,-2.860617984e-07,5.734097420e-06,2.317780127e-06,-7.732423742e-07,-2.663193466e-06,-1.120220336e-06,-4.092601438e-06,-8.226356577e-06,7.447284322e-05,-4.144110392e-05,7.503333958e-07,-2.751068546e-06,-6.321502863e-05,-2.014624290e-05,-5.324471762e-05,-5.072795402e-06,-2.679471375e-05,-9.338053014e-06,-2.573112980e-05,-1.418496483e-05,5.522886944e-04,8.664425712e-04
0.55,1.274381431e-04,8.271080313e-05,3.941031775e-05,2.435450733e-05,4.656045550e-05,1.331557506e-05,2.789266718e-05,1.437818611e-05,2.713884637e-06,6.511898531e-06,5.464847736e-06,-1.170513505e-06,1.810420846e-07,1.891459575e-06,-1.950896928e-06,-7.182358517e-06,8.100837380e-05,-3.033036207e-05,3.328613354e-06,1.181257590e-07,-5.630225945e-05,-1.632943327e-05,-4.702134158e-05,-2.519809553e-06,-2.344367370e-05,-7.222670444e-06,-2.264697842e-05,-1.197158159e-05,5.476565357e-04,8.654142633e-04
0.555,1.338876129e-04,8.438619045e-05,4.505172744e-05,2.653109950e-05,4.756605376e-05,1.565588888e-05,3.264321769e-05,1.679693675e-05,6.601906817e-06,9.761646835e-06,9.604110738e-06,7.391503474e-07,5.229316813e-06,5.309792228e-06,7.313756353e-07,-4.140829666e-06,7.699046584e-05,-2.881133239e-05,7.761248163e-06,4.089571980e-06,-5.286442313e-05,-1.347262505e-05,-5.172094943e-05,7.662710074e-08,-2.220338720e-05,-5.588789808e-06,-2.122845551e-05,-9.586614332e-06,5.527505394e-04,8.588773372e-04
0.56,1.203056714e-04,7.763608067e-05,4.404493145e-05,2.733290812e-05,4.652210832e-05,1.705900090e-05,2.957016671e-05,1.873206715e-05,9.364982525e-06,1.390688719e-05,1.319500809e-05,4.383530574e-06,1.080856460e-05,8.759394922e-06,4.514513213e-06,2.608460611e-07,6.424468243e-05,-3.863062305e-05,9.026264182e-06,5.607234963e-06,-5.673060305e-05,-1.327702735e-05,-5.972899776e-05,1.856618146e-06,-2.271639756e-05,-4.050952161e-06,-2.110356856e-05,-6.439073037e-06,5.557920824e-04,8.526036398e-04
0.565,9.987951325e-05,6.544573659e-05,3.599401783e-05,2.598801592e-05,4.281158929e-05,1.726590322e-05,2.155118557e-05,1.968932116e-05,1.058680763e-05,1.708212220e-05,1.574171978e-05,7.966987258e-06,1.527713354e-05,1.194314230e-05,8.576254224e-06,4.191590532e-06,4.800879985e-05,-5.114609865e-05,6.603091221e-06,4.211943604e-06,-6.381727912e-05,-1.462147269e-05,-6.170918790e-05,3.200732699e-06,-2.316289788e-05,-2.101095999e-06,-2.094997087e-05,-3.016048347e-06,5.627696500e-04,8.666907690e-04
0.57,9.091661569e-05,5.679201284e-05,2.917617694e-05,2.512428595e-05,3.810831681e-05,1.758489896e-05,1.510094216e-05,2.041889006e-05,1.111969948e-05,1.829853071e-05,1.728355056e-05,9.600542320e-06,1.755045519e-05,1.405828665e-05,1.079842097e-05,5.802151738e-06,3.724750220e-05,-5.468942962e-05,4.731198696e-06,2.713088505e-06,-6.592343685e-05,-1.496576097e-05,-5.569660164e-05,4.683303542e-06,-2.227300203e-05,-1.349660117e-07,-2.019680846e-05,-1.237158154e-06,5.587166152e-04,8.509319316e-04
0.575,9.854578585e-05,5.861523113e-05,3.116856044e-05,2.668226187e-05,3.418239034e-05,1.856799720e-05,1.436191593e-05,2.107751048e-05,1.121146975e-05,1.747695272e-05,1.725452825e-05,8.632191593e-06,1.709181074e-05,1.386336729e-05,9.508764532e-06,4.565470675e-06,4.082903719e-05,-4.487229326e-05,6.435327298e-06,3.288321397e-06,-5.943928283e-05,-1.349828716e-05,-4.729284001e-05,5.641179652e-06,-2.067106797e-05,4.648423517e-07,-1.961044117e-05,-2.629469696e-06,5.332685803e-04,8.332625934e-04
0.58,1.106400865e-04,6.800530115e-05,3.979236513e-05,2.874229607e-05,3.110284943e-05,1.883977230e-05,1.786090798e-05,2.054376492e-05,9.971106617e-06,1.505755037e-05,1.482876974e-05,6.098704100e-06,1.410907683e-05,1.093779296e-05,5.355287348e-06,1.664645092e-06,5.873190287e-05,-2.812178755e-05,9.368955313e-06,4.697027869e-06,-4.910007289e-05,-1.202053581e-05,-4.210373219e-05,4.668585508e-06,-1.988356856e-05,-1.224897243e-06,-2.009364167e-05,-6.241023902e-06,5.262151686e-04,8.259639958e-04
0.585,1.115692905e-04,7.423735539e-05,4.529525890e-05,2.780857831e-05,2.835104942e-05,1.692054320e-05,2.072003700e-05,1.809978572e-05,7.050341346e-06,1.198770380e-05,1.059265883e-05,3.868033797e-06,9.958091667e-06,6.815302063e-06,1.208466127e-06,-9.147779304e-07,7.793560563e-05,-1.558058600e-05,9.028838054e-06,4.234087207e-06,-4.259302525e-05,-1.240163496e-05,-4.012659316e-05,1.712497683e-06,-2.028108836e-05,-4.198219333e-06,-2.131918024e-05,-9.037060425e-06,5.038917690e-04,8.277163336e-04
0.59,9.816260052e-05,6.964098211e-05,4.135007820e-05,2.364861797e-05,2.663139549e-05,1.366355799e-05,1.951354031e-05,1.506766353e-05,4.075944824e-06,9.708909606e-06,7.052638740e-06,3.159279242e-06,6.807986008e-06,4.219149330e-06,-2.021576791e-07,-1.850354219e-06,8.159426000e-05,-1.362185912e-05,5.051174205e-06,1.733935410e-06,-4.243433147e-05,-1.387955073e-05,-3.814078098e-05,-1.044444486e-06,-2.057472745e-05,-6.023987111e-06,-2.198572001e-05,-8.792858491e-06,4.810815049e-04,8.287776589e-04
0.595,8.096412233e-05,5.746557785e-05,3.194785289e-05,2.013808686e-05,2.698499818e-05,1.179994254e-05,1.494588568e-05,1.373451408e-05,3.378681163e-06,9.375967139e-06,6.588245517e-06,3.713452925e-06,6.172727895e-06,4.655169314e-06,1.285402725e-06,-1.311225187e-06,6.495807941e-05,-1.969786019e-05,2.112482030e-06,1.612466387e-07,-4.438188449e-05,-1.380020294e-05,-3.558259934e-05,-1.133631307e-06,-1.948098068e-05,-5.176730837e-06,-2.134842620e-05,-6.349156727e-06,4.803235135e-04,8.216210220e-04
0.6,7.118580407e-05,4.783793456e-05,2.635292529e-05,2.066534363e-05,2.808728167e-05,1.276948074e-05,1.043181040e-05,1.457119470e-05,5.167940494e-06,1.072642196e-05,8.864808622e-06,4.319191228e-06,7.531163691e-06,6.839051519e-06,3.285681443e-06,-5.209511877e-07,4.089851043e-05,-2.644720038e-05,3.991352761e-06,1.786178436e-06,-4.353809260e-05,-1.104407819e-05,-3.550968031e-05,1.402729803e-06,-1.740375324e-05,-2.708611832e-06,-2.005077532e-05,-4.574147261e-06,4.892292342e-04,8.092479106e-04
0.605,6.927848316e-05,4.670601361e-05,2.853010479e-05,2.384145839e-05,2.615270030e-05,1.475767770e-05,8.770816467e-06,1.538758294e-05,6.764578377e-06,1.204336805e-05,1.091789791e-05,4.128896575e-06,8.717384497e-06,7.887626402e-06,3.344044694e-06,-5.309271941e-07,2.758572462e-05,-2.921537305e-05,8.427364304e-06,4.858345424e-06,-4.029218814e-05,-7.852027222e-06,-3.959418563e-05,3.750772699e-06,-1.601530569e-05,-1.264213240e-06,-1.925177680e-05,-5.169834788e-06,4.848888221e-04,7.981253447e-04
0.61,6.740121811e-05,5.053291048e-05,3.350211556e-05,2.507837228e-05,1.903936601e-05,1.463966842e-05,1.022986739e-05,1.388023323e-05,5.324347830e-06,1.172474189e-05,1.018994545e-05,3.457404405e-06,8.034799050e-06,6.202082257e-06,1.269351418e-06,-1.335812612e-06,3.111267751e-05,-2.965036919e-05,9.631589924e-06,5.310958328e-06,-3.911951281e-05,-7.569711726e-06,-4.450097704e-05,3.178587543e-06,-1.632530388e-05,-2.397422511e-06,-1.925114095e-05,-6.991898623e-06,4.817779619e-04,7.951896141e-04
0.615,6.092192661e-05,5.199704321e-05,3.417081604e-05,2.220917953e-05,1.011264142e-05,1.171021686e-05,1.316170513e-05,1.063827802e-05,1.157917870e-06,9.960229695e-06,7.201748016e-06,3.312714889e-06,5.983098607e-06,3.008235270e-06,-1.017209139e-06,-2.061090784e-06,4.189033831e-05,-3.243743525e-05,5.548783432e-06,1.697840565e-06,-4.236694034e-05,-1.081416265e-05,-4.519059473e-05,-9.496677899e-08,-1.765276154e-05,-5.076911292e-06,-1.934506861e-05,-7.658676958e-06,4.843595692e-04,7.956802346e-04
0.62,5.434076695e-05,4.879819305e-05,2.977034203e-05,1.823467639e-05,6.449229131e-06,8.741765880e-06,1.576683388e-05,8.818836583e-06,-2.253895569e-06,8.561107137e-06,4.837667061e-06,4.223150842e-06,4.695797388e-06,1.004757992e-06,-1.623774935e-06,-1.894200177e-06,4.742647533e-05,-3.892328092e-05,7.795083945e-07,-2.664176063e-06,-4.700924720e-05,-1.455592748e-05,-4.111287744e-05,-3.159372088e-06,-1.858759476e-05,-6.848464603e-06,-1.889974897e-05,-6.254207391e-06,4.855210311e-04,8.005505617e-04
0.625,5.533335146e-05,4.508769813e-05,2.613566967e-05,1.790505279e-05,1.222621212e-05,9.051036404e-06,1.719982938e-05,1.067817829e-05,-1.714557418e-06,8.978261638e-06,5.170072876e-06,5.625486746e-06,5.660296915e-06,1.758383696e-06,-2.764938570e-07,-7.786607002e-07,4.542352401e-05,-4.425410453e-05,1.386018524e-06,-3.102449830e-06,-4.813248244e-05,-1.519002913e-05,-3.693467085e-05,-3.348136671e-06,-1.848570884e-05,-6.148593026e-06,-1.805924852e-05,-3.849609830e-06,4.855093681e-04,8.029901792e-04
0.63,6.536293467e-05,4.518753638e-05,2.845816183e-05,2.240373099e-05,2.427335315e-05,1.297604260e-05,1.754439498e-05,1.501455506e-05,2.579201042e-06,1.070401105e-05,7.515840747e-06,6.428099373e-06,8.203215394e-06,4.615828358e-06,2.134580792e-06,7.179404597e-07,4.266795148e-05,-4.129347104e-05,7.859890088e-06,1.390601568e-06,-4.448554868e-05,-1.207872130e-05,-3.650970663e-05,-5.571094703e-07,-1.765493632e-05,-3.309088631e-06,-1.720805420e-05,-1.610189158e-06,4.776517308e-04,8.013351084e-04
0.635,7.824046054e-05,4.845607075e-05,3.565035002e-05,2.837411166e-05,3.489283598e-05,1.769813614e-05,1.729573895e-05,1.848065421e-05,7.537128114e-06,1.188095980e-05,9.693004643e-06,6.087894926e-06,1.030647172e-05,7.847551407e-06,4.914404448e-06,2.014275200e-06,4.377137319e-05,-2.801584080e-05,1.466667731e-05,7.279380584e-06,-3.939789434e-05,-7.774393966e-06,-3.797942998e-05,3.220725985e-06,-1.644189527e-05,2.839466252e-07,-1.619654779e-05,6.458050126e-07,4.876885725e-04,8.048507318e-04
0.64,8.693533529e-05,5.126853165e-05,4.225660562e-05,3.188659803e-05,3.899878627e-05,2.027243423e-05,1.694067632e-05,1.908394904e-05,1.033578625e-05,1.138249610e-05,1.056241588e-05,5.038613763e-06,1.068062963e-05,1.024768467e-05,7.860710060e-06,2.853629270e-06,4.535680319e-05,-1.122976094e-05,1.659192287e-05,1.043346404e-05,-3.657825355e-05,-5.164083751e-06,-3.668695781e-05,5.997014109e-06,-1.488847539e-05,3.341009765e-06,-1.467406668e-05,3.462671204e-06,4.908565941e-04,7.986827752e-04
0.645,8.916803505e-05,5.224875877e-05,4.439491112e-05,3.219331135e-05,3.793035194e-05,2.021564437e-05,1.670343282e-05,1.779296610e-05,1.060368657e-05,9.952903970e-06,1.074750087e-05,4.097297864e-06,9.775687807e-06,1.145692382e-05,1.038800972e-05,3.147028553e-06,4.217307324e-05,-2.255801557e-06,1.408269271e-05,1.008472385e-05,-3.638524350e-05,-5.012727565e-06,-3.216812582e-05,7.024259279e-06,-1.346581453e-05,4.908441692e-06,-1.313192113e-05,5.940783460e-06,4.908733492e-04,7.960225041e-04
0.65,8.594137016e-05,5.340994688e-05,4.251633057e-05,3.121922792e-05,3.640312824e-05,1.908541852e-05,1.640959190e-05,1.675984171e-05,9.738108578e-06,9.194796660e-06,1.110856016e-05,3.613067037e-06,8.872478460e-06,1.134113449e-05,1.121496666e-05,2.791648019e-06,3.539595518e-05,-7.611954477e-06,1.164952120e-05,8.584559154e-06,-3.670740537e-05,-6.216135402e-06,-2.966652989e-05,6.437796664e-06,-1.342837859e-05,4.256849059e-06,-1.294082315e-05,6.040183844e-06,4.872084900e-04,8.008981258e-04
0.655,7.769554344e-05,5.631963755e-05,3.910093605e-05,3.046839868e-05,3.682073357e-05,1.828782593e-05,1.563129956e-05,1.673430297e-05,8.954283639e-06,9.739836496e-06,1.137783544e-05,3.319050764e-06,8.614820149e-06,9.857609949e-06,9.574035398e-06,1.859733922e-06,3.151737698e-05,-2.304841178e-05,1.212782537e-05,8.101841841e-06,-3.633783183e-05,-7.584546170e-06,-3.363627095e-05,4.635531232e-06,-1.562084555e-05,1.420488446e-06,-1.485133578e-05,3.056326253e-06,4.909986958e-04,8.065113208e-04
0.66,6.507260516e-05,5.914755150e-05,3.563042598e-05,2.969618015e-05,3.741548955e-05,1.798706663e-05,1.417908060e-05,1.675940497e-05,8.535601448e-06,1.074351319e-05,1.076318820e-05,2.940580045e-06,8.669243324e-06,7.644041348e-06,6.514379700e-06,8.441264753e-07,3.380396103e-05,-3.683711995e-05,1.402193990e-05,8.583586937e-06,-3.610233893e-05,-8.694629595e-06,-4.156690827e-05,2.398168246e-06,-1.895565520e-05,-2.114179716e-06,-1.770701303e-05,-9.489701441e-07,4.959984154e-04,7.889782238e-04
0.665,5.268751635e-05,5.861033627e-05,3.254450187e-05,2.845179786e-05,3.546863340e-05,1.790102218e-05,1.253279844e-05,1.600137089e-05,8.501536413e-06,1.108104768e-05,9.420267766e-06,2.712259121e-06,8.535027984e-06,6.060329193e-06,4.250709272e-06,3.667199044e-07,3.817161571e-05,-3.967116750e-05,1.439359891e-05,8.860851849e-06,-3.684112390e-05,-9.351165526e-06,-4.655485244e-05,1.008134461e-06,-2.086975579e-05,-4.071551992e-06,-1.929706340e-05,-3.065957725e-06,4.933832509e-04,7.981471301e-04
0.67,4.804879962e-05,5.388518499e-05,3.072499108e-05,2.750009263e-05,3.103477218e-05,1.819917355e-05,1.164455477e-05,1.498535874e-05,9.012057689e-06,1.060038876e-05,8.513122970e-06,3.116361382e-06,8.173001485e-06,5.969100532e-06,3.831055957e-06,4.449166057e-07,3.867136137e-05,-3.206853757e-05,1.271052281e-05,8.577089038e-06,-3.779494139e-05,-9.239507149e-06,-4.565215257e-05,1.342001042e-06,-1.990405437e-05,-3.471707465e-06,-1.873010951e-05,-2.846951939e-06,4.865380522e-04,7.887127915e-04
0.675,5.397139381e-05,4.735834654e-05,3.114701042e-05,2.774268058e-05,2.685116388e-05,1.902198744e-05,1.211070976e-05,1.468207025e-05,9.724974874e-06,9.944707516e-06,8.623555418e-06,4.144856310e-06,7.681030323e-06,6.500879768e-06,3.793493500e-06,2.138801060e-07,3.465223911e-05,-2.258363251e-05,1.070517901e-05,8.147407261e-06,-3.793415568e-05,-8.645036403e-06,-4.310261232e-05,2.607869008e-06,-1.763031427e-05,-1.988672524e-06,-1.757735644e-05,-2.928427305e-06,4.915354639e-04,7.908533140e-04
0.68,6.347951321e-05,4.189039682e-05,3.286620115e-05,2.824459010e-05,2.513633364e-05,1.947331948e-05,1.346659254e-05,1.487593356e-05,9.325494843e-06,9.386194949e-06,8.648787160e-06,5.010107342e-06,6.709383212e-06,5.571922475e-06,1.652940240e-06,-1.297826418e-06,3.010173604e-05,-1.924134457e-05,9.196418674e-06,7.237312583e-06,-3.813705408e-05,-9.027169703e-06,-4.408587873e-05,2.510881261e-06,-1.742412492e-05,-2.652044660e-06,-1.825411033e-05,-5.945736696e-06,4.871801746e-04,7.907465272e-04
0.685,6.552079096e-05,3.865388606e-05,3.273923635e-05,2.651127751e-05,2.524317088e-05,1.787074599e-05,1.439818408e-05,1.406977435e-05,6.467484641e-06,8.301115881e-06,6.809553844e-06,4.748158193e-06,4.636652672e-06,1.960495720e-06,-3.281036764e-06,-4.012848222e-06,2.699698757e-05,-2.302589270e-05,6.709379809e-06,4.431692371e-06,-4.063039511e-05,-1.202850697e-05,-4.736555160e-05,-7.706263566e-07,-2.112837125e-05,-6.892722959e-06,-2.140946621e-05,-1.133221328e-05,4.871675007e-04,7.921075749e-04
0.69,5.664238207e-05,3.768436769e-05,2.825667931e-05,2.114086810e-05,2.441245314e-05,1.335170914e-05,1.380536897e-05,1.106837395e-05,1.336483796e-06,5.988470037e-06,2.685950753e-06,3.142548814e-06,1.391682783e-06,-3.303669189e-06,-8.990361240e-06,-6.621189591e-06,2.256229289e-05,-2.927278129e-05,1.780524624e-06,-1.032158699e-06,-4.591842537e-05,-1.762593260e-05,-4.706079187e-05,-6.721868726e-06,-2.720822369e-05,-1.307570173e-05,-2.534844025e-05,-1.587677175e-05,4.828281774e-04,7.843958559e-04
0.695,4.494880519e-05,3.886529599e-05,2.041017269e-05,1.364954670e-05,2.028327191e-05,7.024702128e-06,1.175276485e-05,6.322071954e-06,-4.106686024e-06,2.801220057e-06,-2.131774307e-06,1.009800248e-06,-2.147175461e-06,-7.861868908e-06,-1.279473903e-05,-7.753596734e-06,1.429441645e-05,-3.400490823e-05,-4.412207866e-06,-7.667683045e-06,-5.122987655e-05,-2.361686693e-05,-4.153191548e-05,-1.279490058e-05,-3.232560885e-05,-1.813131329e-05,-2.803093459e-05,-1.733804110e-05,4.857654254e-04,7.742283607e-04
0.7,4.100589450e-05,4.110513023e-05,1.297742018e-05,7.180961950e-06,1.270901943e-05,1.284043949e-06,9.382939207e-06,1.616717106e-06,-7.680757940e-06,1.788246819e-07,-5.486849614e-06,-4.549539778e-07,-4.736593237e-06,-1.020355741e-05,-1.391147504e-05,-7.285345614e-06,5.409553266e-06,-3.752474801e-05,-8.842007676e-06,-1.255124149e-05,-5.291550287e-05,-2.727303776e-05,-3.709538972e-05,-1.653346094e-05,-3.436055109e-05,-2.036036360e-05,-2.905579044e-05,-1.667046871e-05,4.964242677e-04,7.833564848e-04
0.705,4.635049616e-05,4.150254091e-05,8.925604746e-06,3.671561539e-06,3.977286809e-06,-1.976454362e-06,7.863267761e-06,-1.278671070e-06,-8.636818241e-06,-5.262639046e-07,-6.455862194e-06,-6.291166811e-07,-5.682155965e-06,-1.063296360e-05,-1.360110462e-05,-6.288597521e-06,2.594207162e-06,-4.185550296e-05,-9.914605741e-06,-1.383072500e-05,-5.018917628e-05,-2.744633229e-05,-4.041393956e-05,-1.721602470e-05,-3.355739969e-05,-2.028832634e-05,-2.924894840e-05,-1.625243550e-05,4.898059712e-04,7.875918990e-04
0.71,5.326620128e-05,3.739984420e-05,8.099456165e-06,2.732413691e-06,-2.157477855e-06,-2.442477393e-06,7.383862388e-06,-1.560019270e-06,-7.696740731e-06,7.878464424e-07,-5.626507153e-06,1.592860697e-07,-5.130513555e-06,-1.018551038e-05,-1.307562106e-05,-5.718012297e-06,8.378144400e-06,-4.630983845e-05,-9.039493417e-06,-1.215386979e-05,-4.578518121e-05,-2.497915031e-05,-4.880858813e-05,-1.558858789e-05,-3.113691450e-05,-1.904286641e-05,-2.873937204e-05,-1.658563752e-05,4.863006846e-04,7.805189425e-04
0.715,5.506827442e-05,2.989697028e-05,8.499456999e-06,3.058903354e-06,-2.292734571e-06,-1.020439953e-06,7.157171118e-06,5.265235225e-07,-5.841924555e-06,2.925275101e-06,-4.014556426e-06,1.061067043e-06,-3.670867634e-06,-9.179378945e-06,-1.205265948e-05,-5.437168586e-06,1.770414567e-05,-4.728914808e-05,-8.641406871e-06,-9.646392088e-06,-4.289821051e-05,-2.142228616e-05,-5.190897329e-05,-1.264821374e-05,-2.776005781e-05,-1.675661004e-05,-2.642074002e-05,-1.577476144e-05,4.936419577e-04,7.857420530e-04
0.72,5.298747794e-05,2.396650040e-05,8.954514648e-06,4.097112400e-06,4.358306200e-06,1.117400305e-06,6.346193119e-06,3.911095692e-06,-3.559445697e-06,4.375433339e-06,-2.201790127e-06,1.432308376e-06,-1.931971123e-06,-7.283168313e-06,-9.733817231e-06,-4.731868184e-06,2.287123097e-05,-4.258367115e-05,-9.327134149e-06,-7.912810557e-06,-4.220859347e-05,-1.789496729e-05,-4.412637806e-05,-9.192951818e-06,-2.380325145e-05,-1.309685089e-05,-2.174732970e-05,-1.237778453e-05,4.943177305e-04,7.908036096e-04
0.725,5.129271397e-05,2.377642996e-05,9.768325211e-06,5.922056759e-06,1.473544139e-05,3.072918550e-06,4.937609361e-06,6.969852449e-06,-1.219691766e-06,4.374946312e-06,-4.790794887e-07,1.221968757e-06,-5.329117302e-07,-4.736715485e-06,-6.624785617e-06,-3.527268769e-06,2.074626459e-05,-3.455347122e-05,-9.694183254e-06,-7.226006827e-06,-4.225310251e-05,-1.516239063e-05,-3.262842609e-05,-6.241423696e-06,-2.044145686e-05,-8.877270527e-06,-1.643525193e-05,-7.782294896e-06,4.881340112e-04,7.804434402e-04
0.73,4.901785687e-05,2.832448291e-05,1.114186898e-05,8.037707798e-06,2.344814552e-05,4.289479064e-06,3.704513206e-06,8.193170641e-06,4.632628589e-07,3.260753529e-06,7.491130375e-07,8.349583962e-07,-2.085081639e-08,-2.764102840e-06,-4.480769958e-06,-2.604248154e-06,1.438355235e-05,-2.802446359e-05,-8.613702426e-06,-7.188553133e-06,-4.195851674e-05,-1.402714061e-05,-2.976314876e-05,-4.977009408e-06,-1.930258444e-05,-6.114680967e-06,-1.341369543e-05,-4.873531850e-06,4.784676377e-04,7.896074867e-04
0.735,4.144823540e-05,3.285325350e-05,1.213015502e-05,9.153702655e-06,2.654902532e-05,4.590341573e-06,3.401698433e-06,7.197428606e-06,8.810478092e-07,2.031489668e-06,1.138130460e-06,7.342265276e-07,-4.886476741e-07,-2.390477421e-06,-4.254725434e-06,-2.461125591e-06,8.905092091e-06,-2.549226829e-05,-6.808617591e-06,-7.493759038e-06,-4.177920523e-05,-1.484372699e-05,-3.822157553e-05,-5.709829042e-06,-2.066114949e-05,-6.028654655e-06,-1.383814207e-05,-4.617857624e-06,4.804874201e-04,7.850199189e-04
0.74,3.005415125e-05,3.438418350e-05,1.172210899e-05,8.375027526e-06,2.435945929e-05,4.221277724e-06,4.100418389e-06,5.109860028e-06,2.868512752e-07,1.544703464e-06,8.252411684e-07,1.112415059e-06,-1.300944832e-06,-3.173144625e-06,-4.770371654e-06,-2.380062458e-06,7.443728834e-06,-2.557003373e-05,-5.882455853e-06,-7.924294753e-06,-4.233630763e-05,-1.667852748e-05,-4.731700552e-05,-7.190562190e-06,-2.261547994e-05,-7.472751129e-06,-1.572709203e-05,-4.967421724e-06,4.902053425e-04,7.572037023e-04
0.745,2.555961162e-05,3.433057641e-05,1.038669904e-05,6.236788807e-06,2.054260400e-05,3.631568631e-06,5.287896023e-06,3.617371687e-06,-3.949808406e-07,1.909534152e-06,2.985358165e-07,1.783482740e-06,-1.527265327e-06,-3.615111011e-06,-4.059986795e-06,-1.147286066e-06,1.033710696e-05,-2.625925942e-05,-6.374102733e-06,-8.128835277e-06,-4.295399322e-05,-1.766439292e-05,-4.574564162e-05,-7.596220149e-06,-2.278231920e-05,-8.015150017e-06,-1.607457110e-05,-3.543983005e-06,4.940852535e-04,7.740373354e-04
0.75,3.616635461e-05,3.508661592e-05,9.766911563e-06,4.333794669e-06,1.839397615e-05,3.140431691e-06,6.431477264e-06,3.493577397e-06,-6.222526230e-07,2.504812881e-06,-1.660328699e-07,2.306018928e-06,-8.174365280e-07,-2.851299901e-06,-1.815868651e-06,1.288544477e-06,1.559561594e-05,-2.824967365e-05,-7.322487793e-06,-7.843983085e-06,-4.227417619e-05,-1.668551481e-05,-3.551321069e-05,-6.363973045e-06,-2.074567524e-05,-6.556725118e-06,-1.406776576e-05,-6.824340189e-07,4.836419119e-04,7.902335166e-04
0.755,5.402070853e-05,3.571678510e-05,1.083479659e-05,4.115338389e-06,1.823154469e-05,2.945426340e-06,7.255884213e-06,4.199186346e-06,-7.154449311e-07,2.641614827e-06,-6.053322450e-07,2.288136538e-06,2.878038923e-07,-1.506263751e-06,1.857351693e-07,3.375234825e-06,1.905592706e-05,-3.344116722e-05,-7.515766016e-06,-7.208862326e-06,-3.993663020e-05,-1.451587981e-05,-2.962013167e-05,-4.680497600e-06,-1.827563917e-05,-4.339041447e-06,-1.163105554e-05,1.058523719e-06,4.816268089e-04,7.913703269e-04
0.76,5.943572937e-05,3.309969057e-05,1.288408533e-05,6.069971597e-06,1.826553133e-05,3.382707758e-06,7.524372075e-06,4.899722676e-06,-1.070335278e-06,2.299819564e-06,-8.306001532e-07,1.715678888e-06,1.049900675e-06,-7.104012392e-07,2.980414618e-07,3.548136918e-06,1.631014279e-05,-4.043195003e-05,-6.596806682e-06,-6.531733232e-06,-3.688048540e-05,-1.289331485e-05,-3.604694434e-05,-3.948866704e-06,-1.705182787e-05,-3.201312212e-06,-1.080784091e-05,2.453896045e-07,4.870721682e-04,7.782056929e-04
0.765,4.232551432e-05,2.714892810e-05,1.446451092e-05,9.523805957e-06,1.724607276e-05,4.733415583e-06,6.890104754e-06,5.461252236e-06,-1.299197136e-06,2.157247942e-06,-2.438923063e-07,1.036337303e-06,1.382095578e-06,-6.770635925e-07,-9.665783821e-07,2.061867078e-06,7.352976846e-06,-4.340540596e-05,-4.975956923e-06,-5.832057764e-06,-3.403599642e-05,-1.256658922e-05,-4.785870262e-05,-4.150706689e-06,-1.681925063e-05,-3.414780907e-06,-1.136350166e-05,-1.581964505e-06,4.811411712e-04,7.697094470e-04
0.77,1.691712945e-05,2.258233797e-05,1.479562033e-05,1.264619095e-05,1.557324893e-05,6.440567713e-06,5.300617322e-06,6.122071300e-06,-7.336626232e-07,2.778527388e-06,1.335812395e-06,8.480289794e-07,1.754108847e-06,-7.289107018e-07,-1.707873816e-06,7.605634937e-07,-8.603811101e-07,-3.723271961e-05,-3.344613914e-06,-5.028819065e-06,-3.155276257e-05,-1.274130835e-05,-5.183486075e-05,-4.201074663e-06,-1.628179834e-05,-3.808245560e-06,-1.153314121e-05,-1.939413513e-06,4.781206942e-04,7.618383566e-04
0.775,9.916149883e-06,2.396615836e-05,1.396216795e-05,1.298840648e-05,1.411264273e-05,6.858770745e-06,3.523749668e-06,6.513388032e-06,2.840955411e-07,3.841058215e-06,2.843523618e-06,1.404517755e-06,2.315234176e-06,-5.719175976e-07,-1.159626396e-06,9.392091993e-07,6.034280884e-07,-2.370509042e-05,-2.633784982e-06,-4.628756823e-06,-2.967944019e-05,-1.254280401e-05,-4.484788691e-05,-3.740084321e-06,-1.532277108e-05,-3.730065572e-06,-1.067919104e-05,-6.117725485e-07,4.696884016e-04,7.697558845e-04
0.78,3.228385244e-05,3.001942581e-05,1.226312903e-05,9.212911064e-06,1.295071552e-05,4.591158992e-06,2.874297079e-06,5.764866219e-06,3.591184123e-07,4.411762247e-06,2.682723854e-06,2.402739471e-06,2.536983750e-06,-8.375737545e-07,-5.781258732e-07,1.887152544e-06,1.324367810e-05,-1.143717311e-05,-3.846600038e-06,-5.635299780e-06,-2.957575859e-05,-1.239385341e-05,-3.740804640e-05,-3.797082785e-06,-1.530754860e-05,-3.949231392e-06,-1.018359112e-05,1.823078432e-07,4.794628081e-04,7.627616560e-04
0.785,6.560533526e-05,3.473931201e-05,1.015443014e-05,3.096891748e-06,1.180656386e-05,4.857366391e-07,4.036825023e-06,3.910249615e-06,-1.176624945e-06,4.117252148e-06,6.915310426e-07,3.293301778e-06,2.032018880e-06,-1.961025828e-06,-1.274808964e-06,1.951750720e-06,2.792660429e-05,-8.580487027e-06,-7.021168929e-06,-8.196985614e-06,-3.214077737e-05,-1.328690339e-05,-3.991161631e-05,-5.225429753e-06,-1.687005900e-05,-5.187571195e-06,-1.134875875e-05,-1.107470062e-06,4.785114607e-04,7.750525298e-04
0.79,7.942842569e-05,3.420799506e-05,8.772791384e-06,-7.271559474e-07,1.096630454e-05,-2.193544356e-06,6.181809967e-06,2.659490341e-06,-2.821175441e-06,3.828209358e-06,-9.939316877e-07,3.813181157e-06,1.492311800e-06,-2.966049813e-06,-2.465663004e-06,8.045832350e-07,3.317851694e-05,-1.561254147e-05,-1.027753443e-05,-1.055669343e-05,-3.602955433e-05,-1.487465743e-05,-4.895628882e-05,-6.956488954e-06,-1.826403012e-05,-6.437537309e-06,-1.319255970e-05,-3.109961953e-06,4.751865469e-04,7.952082247e-04
0.795,6.167140381e-05,3.051014296e-05,9.559775028e-06,1.627360907e-06,1.083015229e-05,-4.756018610e-07,7.614264407e-06,3.973342924e-06,-2.105964814e-06,4.832563228e-06,2.149580486e-07,4.171874673e-06,2.246691881e-06,-2.176272037e-06,-2.039323372e-06,-6.891383298e-09,2.654566829e-05,-2.558315837e-05,-1.076586117e-05,-1.018345986e-05,-3.795230839e-05,-1.518766880e-05,-5.109822234e-05,-6.707806258e-06,-1.698360968e-05,-5.761053718e-06,-1.332137700e-05,-3.203048946e-06,4.807609977e-04,7.845291503e-04
0.8,2.984843988e-05,2.813146410e-05,1.264234039e-05,9.228355549e-06,1.064895073e-05,5.082726818e-06,7.552392916e-06,7.696411244e-06,1.440375223e-06,7.247274772e-06,4.410200416e-06,4.685950517e-06,4.619117569e-06,6.163762042e-07,4.671466904e-07,9.603346562e-07,1.600556162e-05,-3.113343665e-05,-7.361645764e-06,-6.472986832e-06,-3.582437119e-05,-1.285179577e-05,-3.956260484e-05,-3.721642924e-06,-1.307049045e-05,-2.934762447e-06,-1.102914632e-05,-1.050915599e-06,4.886902359e-04,7.723485323e-04
0.805,1.255993623e-05,2.823917368e-05,1.593404075e-05,1.633297809e-05,8.898783367e-06,1.030065212e-05,7.087921170e-06,1.116916877e-05,5.110963440e-06,9.540556403e-06,8.538876959e-06,5.282964151e-06,7.049408164e-06,3.245467668e-06,2.561982064e-06,2.969868150e-06,1.019575911e-05,-3.062358596e-05,-2.296804172e-06,-1.978939718e-06,-3.129988905e-05,-9.221999535e-06,-2.318285717e-05,-2.137961780e-07,-9.857807887e-06,-4.789746977e-07,-8.630703104e-06,6.075520155e-07,4.840936257e-04,7.716851647e-04
0.81,2.246681691e-05,2.864058928e-05,1.674704902e-05,1.736716753e-05,5.709527082e-06,1.109660077e-05,7.982198853e-06,1.172798187e-05,5.519803509e-06,9.943009489e-06,9.208314687e-06,5.463372978e-06,7.356616033e-06,3.076646256e-06,1.244022987e-06,3.635884467e-06,9.954711614e-06,-2.747873497e-05,5.838442457e-07,-2.607685869e-07,-2.830247794e-05,-7.479590948e-06,-1.647249984e-05,5.940494900e-07,-1.066171974e-05,-1.274475078e-06,-9.032094929e-06,-8.805099151e-07,4.829499167e-04,7.771275028e-04
0.815,4.808440979e-05,2.873659155e-05,1.463079523e-05,1.220337907e-05,4.252477949e-06,7.412682254e-06,1.040490018e-05,9.484469352e-06,2.286211511e-06,8.313391735e-06,6.109908027e-06,4.802122867e-06,5.009312985e-06,-1.493972310e-07,-3.443935817e-06,1.584082846e-06,1.121007920e-05,-2.475103695e-05,-4.740835295e-07,-2.304796303e-06,-2.886931091e-05,-9.293749832e-06,-2.295430373e-05,-2.108148657e-06,-1.497991255e-05,-5.281672239e-06,-1.229263869e-05,-4.829155434e-06,4.883624642e-04,7.752025116e-04
0.82,6.858403196e-05,3.141590662e-05,1.213397959e-05,6.189110312e-06,8.281875169e-06,3.173538117e-06,1.225368774e-05,7.167872978e-06,-1.353078353e-06,6.342644945e-06,2.290182864e-06,3.457839389e-06,1.858085545e-06,-3.824784046e-06,-8.062350280e-06,-1.905609769e-06,1.353945202e-05,-2.169341071e-05,-3.430854149e-06,-5.463240326e-06,-3.110588697e-05,-1.281511635e-05,-3.178632965e-05,-5.767208891e-06,-1.872291026e-05,-9.305870598e-06,-1.537499697e-05,-7.917071884e-06,4.901593369e-04,7.757649666e-04
0.825,7.256706181e-05,3.824214145e-05,1.228701681e-05,4.799385712e-06,1.771043139e-05,2.286527388e-06,1.120605925e-05,7.129545283e-06,-1.912183097e-06,5.801318702e-06,9.569202893e-07,2.140398692e-06,3.833148430e-07,-5.049471954e-06,-9.231278701e-06,-4.223199249e-06,2.105568661e-05,-1.594145293e-05,-4.679947408e-06,-6.227103051e-06,-3.163437815e-05,-1.446183531e-05,-3.112765117e-05,-7.141468348e-06,-1.841779886e-05,-1.025540100e-05,-1.545870117e-05,-7.946332324e-06,4.867065251e-04,7.840430927e-04
0.83,6.302880144e-05,4.464519803e-05,1.549767084e-05,8.545631289e-06,2.740481879e-05,4.949877010e-06,7.498345193e-06,8.925824265e-06,7.161235830e-07,6.789344284e-06,2.379541417e-06,1.571828325e-06,1.336101889e-06,-3.439655182e-06,-6.933378349e-06,-4.088739175e-06,3.363348711e-05,-8.131543200e-06,-2.748457560e-06,-3.815450088e-06,-2.948355345e-05,-1.259822065e-05,-2.172983325e-05,-5.569075575e-06,-1.467521205e-05,-8.165763724e-06,-1.286819885e-05,-5.995920132e-06,4.799667882e-04,7.928450512e-04
0.835,4.934360096e-05,4.324727258e-05,1.930398456e-05,1.324932374e-05,3.141302063e-05,8.009891649e-06,4.214219493e-06,1.015420904e-05,3.401953806e-06,7.921878779e-06,4.169789876e-06,1.977440074e-06,3.312855271e-06,-1.121760676e-06,-3.951743609e-06,-2.444592446e-06,4.162813131e-05,-3.196187017e-06,5.009833273e-07,-7.027244761e-07,-2.680668632e-05,-9.057508601e-06,-1.512473180e-05,-3.238656113e-06,-1.115833449e-05,-5.625651328e-06,-1.026826944e-05,-4.511356722e-06,4.825431387e-04,7.936265596e-04
0.84,3.862327853e-05,3.278875200e-05,2.102211559e-05,1.473402290e-05,2.848730982e-05,8.529859096e-06,4.357285450e-06,9.337137458e-06,3.315776655e-06,8.087155090e-06,4.243369492e-06,3.029252264e-06,4.514998290e-06,-2.029141224e-07,-2.458751371e-06,-8.586572066e-07,3.437944692e-05,-6.452825323e-06,2.102499818e-06,1.919433939e-07,-2.600217953e-05,-7.046277722e-06,-1.996584336e-05,-2.501926728e-06,-1.058812176e-05,-4.638656656e-06,-9.455569885e-06,-4.101765059e-06,4.910898086e-04,7.870071611e-04
0.845,3.339856059e-05,2.135556905e-05,2.008752364e-05,1.254603579e-05,2.282267472e-05,6.477077739e-06,7.655619078e-06,7.382677446e-06,7.051196769e-07,7.614450971e-06,2.884236520e-06,4.150564981e-06,4.501513092e-06,-7.890483133e-07,-2.034922179e-06,2.153158428e-07,1.403812456e-05,-1.821127120e-05,8.538138634e-07,-1.716849135e-06,-2.718519458e-05,-8.025591703e-06,-3.317578752e-05,-3.559642458e-06,-1.247008249e-05,-4.841839963e-06,-9.843034140e-06,-3.289116589e-06,4.832643780e-04,7.732770089e-04
0.85,3.282695846e-05,1.848341671e-05,1.777393974e-05,9.276877320e-06,1.922981904e-05,4.009822640e-06,1.068039727e-05,6.142547525e-06,-1.974540327e-06,7.547748096e-06,1.816528861e-06,4.821509710e-06,4.050156653e-06,-1.583039178e-06,-1.218827164e-06,1.150464979e-06,-3.396411207e-06,-3.218897964e-05,-2.079073682e-06,-4.745950342e-06,-2.893057200e-05,-1.087373585e-05,-4.479074243e-05,-4.948409070e-06,-1.465607307e-05,-4.901173249e-06,-1.019746283e-05,-1.339110558e-06,4.838877424e-04,7.672943643e-04
0.855,3.385192741e-05,2.475481310e-05,1.542822715e-05,7.352296548e-06,1.836063623e-05,2.895668369e-06,1.040039390e-05,6.156873259e-06,-3.004158138e-06,8.105580790e-06,1.890486319e-06,4.729922710e-06,3.721496296e-06,-1.815828591e-06,-6.934430443e-08,1.659254126e-06,-3.674689266e-06,-3.954617785e-05,-4.691892754e-06,-7.043241348e-06,-3.056525045e-05,-1.359347147e-05,-4.857137492e-05,-5.661153782e-06,-1.615186487e-05,-4.761914969e-06,-1.084710153e-05,-7.770827760e-08,4.858271401e-04,7.740998421e-04
0.86,3.346001174e-05,3.148423491e-05,1.369389698e-05,7.256497124e-06,1.731254100e-05,3.193502325e-06,7.417120618e-06,6.376891579e-06,-2.776169216e-06,8.342555633e-06,2.319269428e-06,3.882669916e-06,3.175281301e-06,-1.928751769e-06,-1.492907124e-07,6.145999558e-07,1.088381935e-05,-3.545583208e-05,-5.647328310e-06,-7.939196785e-06,-3.252004958e-05,-1.511529328e-05,-4.577293939e-05,-6.069537699e-06,-1.762400802e-05,-5.626324754e-06,-1.314894699e-05,-1.884110814e-06,4.959425963e-04,7.680878049e-04
0.865,3.251745645e-05,3.103816466e-05,1.305999248e-05,8.331474001e-06,1.430979046e-05,4.100276228e-06,5.270834288e-06,5.887354412e-06,-2.458735612e-06,7.413316219e-06,2.072677949e-06,2.711449407e-06,2.018656160e-06,-2.446734793e-06,-2.042818957e-06,-2.249493203e-06,2.509803946e-05,-2.293519789e-05,-4.612788086e-06,-7.510184040e-06,-3.456282152e-05,-1.543901637e-05,-4.037071265e-05,-6.841272686e-06,-1.955323574e-05,-7.870071285e-06,-1.695052045e-05,-6.241436678e-06,4.920145686e-04,7.877444839e-04
0.87,3.631090620e-05,2.522901474e-05,1.399304839e-05,9.998175000e-06,1.136358303e-05,5.160069829e-06,6.449195257e-06,5.152658562e-06,-2.268611724e-06,5.775195607e-06,1.313190638e-06,1.952879142e-06,8.133575150e-07,-2.931102399e-06,-3.979324162e-06,-5.105461843e-06,2.848214217e-05,-1.068950628e-05,-2.125267571e-06,-5.866284207e-06,-3.512734784e-05,-1.485860795e-05,-3.434732848e-05,-7.734004303e-06,-2.101925042e-05,-9.976845356e-06,-1.974454407e-05,-9.499229005e-06,4.787624583e-04,7.981718003e-04
0.875,4.800152844e-05,2.187646639e-05,1.597932476e-05,1.166591181e-05,1.163523198e-05,6.219634375e-06,9.456567452e-06,5.192066198e-06,-1.667791945e-06,4.758735555e-06,1.031800317e-06,2.164468448e-06,6.903995181e-07,-2.563580525e-06,-3.729272299e-06,-5.410372796e-06,2.503146687e-05,-6.439340641e-06,4.132702792e-07,-3.493698460e-06,-3.334987073e-05,-1.376383328e-05,-2.863972438e-05,-7.978314893e-06,-2.083924891e-05,-1.015366162e-05,-1.913969174e-05,-8.679177786e-06,4.768850130e-04,7.954580721e-04
0.88,6.107530642e-05,2.465321548e-05,1.717352286e-05,1.228478650e-05,1.494890436e-05,6.755432995e-06,1.027078708e-05,5.952725870e-06,-7.811172133e-07,5.017500402e-06,1.596613781e-06,3.207628727e-06,1.962747946e-06,-1.471445928e-06,-1.504147767e-06,-2.693967329e-06,2.417918832e-05,-1.111001751e-05,1.279422830e-06,-1.745198333e-06,-3.102308774e-05,-1.293289989e-05,-2.565767952e-05,-7.506299520e-06,-1.931408985e-05,-8.582322548e-06,-1.579396329e-05,-4.947315626e-06,4.883688074e-04,7.815960572e-04
0.885,6.211545297e-05,2.933637251e-05,1.605239490e-05,1.111706777e-05,1.715466425e-05,6.095672438e-06,6.742309349e-06,6.167847358e-06,-6.345771892e-07,5.780509463e-06,2.264590073e-06,4.275872068e-06,3.553629793e-06,-8.048510463e-07,-1.835985464e-08,6.087472756e-07,2.634472360e-05,-1.889575352e-05,-6.158344562e-08,-1.930628124e-06,-3.104425304e-05,-1.313006073e-05,-2.756520781e-05,-7.099735518e-06,-1.801088891e-05,-7.287593049e-06,-1.300752317e-05,-2.462427028e-06,4.869272098e-04,7.763232432e-04
0.89,4.489692388e-05,3.052509542e-05,1.348230541e-05,9.030847482e-06,1.428846794e-05,4.479687166e-06,1.205392897e-06,4.955268980e-06,-1.669615361e-06,5.820081079e-06,2.242755723e-06,4.591393732e-06,4.078253043e-06,-1.304865268e-06,-1.357463435e-06,1.576180799e-06,2.292685567e-05,-2.311396859e-05,-1.909522280e-06,-3.605630702e-06,-3.362367025e-05,-1.402125180e-05,-3.238567237e-05,-7.187223365e-06,-1.781868477e-05,-7.685440919e-06,-1.318931977e-05,-3.790137074e-06,4.846029571e-04,7.801130338e-04
0.895,2.101578089e-05,2.908542133e-05,1.227921332e-05,8.144846080e-06,6.814326770e-06,3.321356297e-06,-1.574370850e-06,3.107413231e-06,-2.659854937e-06,4.930664649e-06,1.780352899e-06,4.128573642e-06,3.319947270e-06,-2.248567851e-06,-4.427338773e-06,-1.776066089e-07,1.056369681e-05,-2.215260269e-05,-1.610602550e-06,-4.460368936e-06,-3.528176555e-05,-1.402537243e-05,-3.480715767e-05,-7.063823148e-06,-1.795498521e-05,-8.922149762e-06,-1.535161045e-05,-7.224612148e-06,4.833825447e-04,7.918269252e-04
0.9,1.230781151e-05,3.022923074e-05,1.418666642e-05,9.600429653e-06,-6.044704565e-07,3.907915799e-06,9.857227909e-07,2.417332747e-06,-1.828636820e-06,4.138123152e-06,1.831735422e-06,3.581551539e-06,2.348423781e-06,-2.251697888e-06,-6.173077680e-06,-2.379580940e-06,-3.779419914e-07,-1.956147557e-05,1.548164289e-06,-2.629964004e-06,-3.272672972e-05,-1.193139113e-05,-3.233464685e-05,-5.788603378e-06,-1.727485387e-05,-9.087580178e-06,-1.658101620e-05,-9.049799830e-06,4.880124440e-04,7.849272593e-04
0.905,2.998161094e-05,3.525146934e-05,1.780108180e-05,1.209553410e-05,-3.137295219e-06,5.964086299e-06,6.887844753e-06,3.840123032e-06,9.980767515e-07,4.461476433e-06,2.797603018e-06,3.573715628e-06,2.222931056e-06,-9.620647843e-07,-5.116716964e-06,-2.934729610e-06,3.868236990e-06,-1.855073273e-05,5.148075419e-06,1.036540804e-06,-2.721839562e-05,-8.594257444e-06,-2.885318870e-05,-3.622949272e-06,-1.600322520e-05,-7.659018040e-06,-1.555691146e-05,-7.872203503e-06,4.867793276e-04,7.727379261e-04
0.91,6.238630956e-05,3.868683713e-05,2.023117143e-05,1.332787140e-05,7.582556093e-07,7.938520592e-06,1.169763276e-05,6.621231864e-06,3.944804300e-06,5.770311643e-06,4.019133000e-06,3.976659947e-06,2.897998397e-06,5.294086333e-07,-2.921267317e-06,-2.255423252e-06,2.332321033e-05,-1.752735318e-05,6.105993725e-06,3.696852676e-06,-2.363156021e-05,-6.346004238e-06,-2.980771143e-05,-1.965876686e-06,-1.538303907e-05,-6.012739470e-06,-1.378587539e-05,-5.881668197e-06,4.799161764e-04,7.785204277e-04
0.915,8.560220780e-05,3.528074479e-05,2.060975043e-05,1.281792859e-05,9.203317719e-06,8.756836396e-06,1.277240026e-05,9.202279628e-06,5.043574074e-06,7.033530372e-06,4.607375623e-06,4.111424168e-06,3.531681931e-06,1.062397900e-06,-2.205801846e-06,-2.369023428e-06,4.237366234e-05,-1.231645115e-05,4.309478233e-06,3.684260586e-06,-2.477007537e-05,-6.409409564e-06,-3.446611804e-05,-1.703646432e-06,-1.566033597e-05,-5.472143194e-06,-1.326092638e-05,-5.843123781e-06,4.859556865e-04,8.000755179e-04
0.92,8.583617127e-05,2.768560109e-05,2.098120497e-05,1.252791850e-05,1.888564545e-05,8.876246940e-06,1.117573328e-05,1.062746601e-05,4.248740008e-06,7.494232405e-06,4.444151605e-06,3.586409029e-06,3.579896865e-06,7.427503326e-07,-3.461436240e-06,-4.126908206e-06,4.649788485e-05,-2.722115768e-06,2.940571228e-06,2.358917032e-06,-2.785032085e-05,-7.400887112e-06,-3.578769835e-05,-2.115897625e-06,-1.531117477e-05,-5.593435192e-06,-1.376493821e-05,-7.731951172e-06,4.937111303e-04,7.973888470e-04
0.925,6.961113330e-05,2.433931264e-05,2.329687471e-05,1.429831957e-05,2.670221870e-05,9.358257340e-06,9.667123180e-06,1.091425017e-05,3.108901905e-06,7.290220061e-06,4.104365404e-06,2.768514943e-06,3.232456467e-06,5.291800795e-07,-4.831249083e-06,-6.084718807e-06,3.745513477e-05,4.792794679e-06,4.650312509e-06,2.274261675e-06,-2.790187249e-05,-7.025327653e-06,-2.925001772e-05,-1.871741910e-06,-1.291302338e-05,-4.962089752e-06,-1.329241958e-05,-9.005028031e-06,4.897522068e-04,7.891060343e-04
0.93,5.262951003e-05,2.963799974e-05,2.637290738e-05,1.726209244e-05,3.050060064e-05,1.024899168e-05,9.382936113e-06,1.041249841e-05,2.692796858e-06,6.918932123e-06,3.967287391e-06,2.318367689e-06,2.821639433e-06,7.300321772e-07,-4.746669890e-06,-6.363960770e-06,2.885204481e-05,2.674094643e-06,8.018813651e-06,3.868632012e-06,-2.419790816e-05,-5.088564238e-06,-1.978558901e-05,-8.846663793e-07,-9.400667662e-06,-3.342937085e-06,-1.089827287e-05,-7.822967249e-06,4.834735446e-04,7.894935718e-04
0.935,4.266479766e-05,3.861557677e-05,2.695351097e-05,1.863037446e-05,2.978998374e-05,1.044574965e-05,8.925487792e-06,9.310964942e-06,2.491332602e-06,6.441123862e-06,3.770449318e-06,2.354679868e-06,2.216989570e-06,5.072105086e-07,-3.895702455e-06,-5.032898712e-06,2.881280520e-05,-9.356350104e-06,8.892345380e-06,4.880026609e-06,-2.155947365e-05,-3.994995731e-06,-1.723421060e-05,-5.454875687e-07,-7.557073868e-06,-2.209201166e-06,-8.156233324e-06,-5.110770925e-06,4.873299014e-04,7.955294391e-04
0.94,3.634864338e-05,4.270731305e-05,2.380819290e-05,1.703946981e-05,2.626934834e-05,9.247001139e-06,6.620280017e-06,7.840134691e-06,1.555916095e-06,5.514674995e-06,3.094262294e-06,2.279339461e-06,1.080856944e-06,-9.269008834e-07,-4.119891686e-06,-4.023041284e-06,3.188301187e-05,-2.273959184e-05,5.431196337e-06,3.341709760e-06,-2.440929819e-05,-5.812891284e-06,-2.490328288e-05,-1.904209196e-06,-8.944537143e-06,-2.879131652e-06,-7.299233281e-06,-3.183583423e-06,4.940849002e-04,7.885231639e-04
0.945,3.025945884e-05,3.932147582e-05,1.971210366e-05,1.432100960e-05,2.286802771e-05,7.527525214e-06,3.142325192e-06,6.531775513e-06,1.218408688e-07,4.131410088e-06,1.969179378e-06,1.505043300e-06,-4.545919022e-07,-3.072532740e-06,-5.904871770e-06,-4.813139381e-06,2.906079719e-05,-2.777759964e-05,8.612594328e-07,4.119802335e-07,-3.068650743e-05,-9.403548812e-06,-3.507182935e-05,-4.121739008e-06,-1.191786006e-05,-4.737695935e-06,-8.462255971e-06,-3.038654197e-06,4.937829050e-04,7.889261104e-04
0.95,2.901403812e-05,3.375402332e-05,1.861756714e-05,1.343584795e-05,2.134386928e-05,6.916248171e-06,1.414328599e-06,5.885270001e-06,-5.840841834e-07,2.974337861e-06,7.691679382e-07,2.239916519e-07,-1.725203017e-06,-4.610179776e-06,-7.803978895e-06,-6.843147998e-06,2.120915058e-05,-2.252289068e-05,2.514737823e-07,-6.888164832e-07,-3.347084174e-05,-1.136069472e-05,-3.731494247e-05,-5.301730130e-06,-1.333747570e-05,-5.962279341e-06,-9.602801313e-06,-3.735768770e-06,4.952207751e-04,7.893012207e-04
0.955,3.911859401e-05,3.222128925e-05,2.135129471e-05,1.509236915e-05,2.084070044e-05,7.934802475e-06,3.781780013e-06,5.842850473e-06,-7.862315208e-08,2.838401474e-06,-3.110715222e-07,-7.161889361e-07,-2.223286162e-06,-5.013822512e-06,-8.424250280e-06,-8.494371227e-06,1.797485940e-05,-1.340070621e-05,4.743756280e-06,1.453585144e-06,-2.897453799e-05,-9.935053879e-06,-2.994878754e-05,-4.780142130e-06,-1.215038212e-05,-5.865770242e-06,-9.207046048e-06,-4.250905373e-06,4.774539459e-04,7.772407019e-04
0.96,5.724039285e-05,3.502309159e-05,2.482756578e-05,1.703388226e-05,1.939945987e-05,9.346874696e-06,9.352637941e-06,5.881792933e-06,5.512201467e-07,3.779934200e-06,-1.312961505e-06,-6.694056128e-07,-2.052634166e-06,-5.081066561e-06,-8.111411469e-06,-9.003787303e-06,2.436668976e-05,-7.530197563e-06,9.945332394e-06,4.483960843e-06,-2.123397869e-05,-7.192872235e-06,-2.102295093e-05,-3.940140389e-06,-1.052754043e-05,-5.732241857e-06,-8.240086918e-06,-4.963992385e-06,4.822575134e-04,7.765207819e-04
0.965,7.133872780e-05,3.871186705e-05,2.619050378e-05,1.711122672e-05,1.686916463e-05,9.753905300e-06,1.475760252e-05,5.831711379e-06,2.766554163e-08,5.100572443e-06,-2.019935123e-06,1.024560427e-07,-1.657779915e-06,-5.789999957e-06,-8.455329163e-06,-9.244092494e-06,3.424940677e-05,-6.356684030e-06,1.066490411e-05,4.827403507e-06,-1.838157448e-05,-6.815376529e-06,-1.896196066e-05,-4.529751167e-06,-1.137176135e-05,-7.167445373e-06,-9.044126778e-06,-6.972561324e-06,4.814461719e-04,7.776621076e-04
0.97,7.105714324e-05,3.955724308e-05,2.502430061e-05,1.521848655e-05,1.562102907e-05,8.880069187e-06,1.656533546e-05,6.042103919e-06,-1.292470486e-06,5.983935329e-06,-1.774003906e-06,9.201411134e-07,-9.619291581e-07,-6.511035753e-06,-9.497075565e-06,-9.551191580e-06,3.751370942e-05,-6.275481726e-06,6.361791282e-06,1.720449450e-06,-2.253986325e-05,-9.486841984e-06,-2.294702414e-05,-6.231574742e-06,-1.448578930e-05,-9.599411988e-06,-1.198438509e-05,-9.853338043e-06,4.720882663e-04,7.848572005e-04
0.975,6.252417459e-05,3.935943651e-05,2.453223853e-05,1.398558588e-05,1.751549856e-05,8.259630971e-06,1.527216136e-05,7.146249275e-06,-1.544209643e-06,6.395746366e-06,-1.178515804e-07,1.168674333e-06,1.853227004e-07,-6.043135745e-06,-1.032283962e-05,-1.001515517e-05,3.442088581e-05,-6.020479938e-06,1.841209869e-06,-1.736207028e-06,-2.925469607e-05,-1.240605882e-05,-2.706552215e-05,-7.141790215e-06,-1.714199716e-05,-1.113215011e-05,-1.520806327e-05,-1.206438960e-05,4.882292229e-04,7.949037129e-04
0.98,5.459301202e-05,3.629795621e-05,2.455329083e-05,1.381484777e-05,2.091583372e-05,8.352315786e-06,1.272143863e-05,8.545668057e-06,3.190960189e-07,6.490711955e-06,2.369973901e-06,1.152045140e-06,1.880575613e-06,-3.550266199e-06,-8.994706205e-06,-8.976574012e-06,3.112408577e-05,-6.811358046e-06,1.333304946e-06,-2.260827147e-06,-2.953739943e-05,-1.169042184e-05,-2.566149880e-05,-5.597286438e-06,-1.606030765e-05,-9.986941937e-06,-1.563505977e-05,-1.174372503e-05,4.799911966e-04,7.620387249e-04
0.985,5.780491689e-05,3.390312868e-05,2.582027472e-05,1.511211463e-05,2.116695437e-05,9.495532663e-06,1.282224469e-05,9.460634792e-06,3.150810139e-06,6.612959305e-06,4.275094361e-06,7.595665454e-07,2.744842328e-06,-1.226721218e-06,-7.548192734e-06,-8.354208744e-06,3.445471098e-05,-1.191936006e-05,4.972841042e-06,4.604911817e-07,-2.482305460e-05,-8.032177561e-06,-2.268908200e-05,-2.949051827e-06,-1.237777331e-05,-7.735069157e-06,-1.366482400e-05,-1.008689337e-05,4.970921905e-04,7.896102972e-04
0.99,5.783167851e-05,2.700853886e-05,2.311741517e-05,1.411335377e-05,1.562436749e-05,9.233780616e-06,1.326801449e-05,8.331388402e-06,4.433635309e-06,5.949509466e-06,4.390079332e-06,3.579718327e-07,2.310166234e-06,-2.756528610e-07,-6.208474325e-06,-7.483030110e-06,3.537252304e-05,-1.652284728e-05,7.850670459e-06,3.152590632e-06,-1.707437834e-05,-3.888565607e-06,-1.880766322e-05,-9.893832661e-07,-7.817060590e-06,-5.508646216e-06,-1.003567671e-05,-7.791010669e-06,4.514139827e-04,7.433936794e-04
0.995,5.931348641e-05,3.058332915e-05,2.264771114e-05,1.424726179e-05,6.443549834e-06,9.127195037e-06,1.528493617e-05,6.453981136e-06,3.325487546e-06,4.780556053e-06,2.788588323e-06,-1.255115198e-06,-5.114560687e-07,-2.865370584e-06,-8.998648209e-06,-1.092334237e-05,3.355214549e-05,-1.893595197e-05,7.854758501e-06,3.738738954e-06,-1.916688673e-05,-3.914133609e-06,-2.016833134e-05,-1.826476429e-06,-6.873002498e-06,-5.781014816e-06,-8.594838596e-06,-7.453811637e-06,5.164510991e-04,8.381423697e-04
1,2.834010405e-05,1.940351140e-05,1.155608725e-05,7.276773548e-06,3.978529589e-07,4.373394989e-06,7.645456496e-06,2.449306868e-06,7.955900078e-07,1.714772161e-06,5.010660990e-07,-1.436806807e-06,-1.576557770e-06,-2.802121329e-06,-5.900271472e-06,-7.096602445e-06,1.456490144e-05,-8.337721177e-06,2.939350629e-06,1.367908488e-06,-1.241385003e-05,-2.922572480e-06,-1.086584789e-05,-1.644288438e-06,-3.903387645e-06,-3.209669509e-06,-4.126201144e-06,-3.658744661e-06,2.892529847e-04,4.640518888e-04
